File: Data/AD_2024_04_18/IV_data/2024-04-18/AD004-2_ITO+SnO2+PVSK+C6Br+Spiro+Carbon (Air Quench)  2024-04-18 20-42-52.txt
Device Id	Operator	Recipe
AD004-2_ITO+SnO2+PVSK+C6Br+Spiro+Carbon (Air Quench) 	Unknown	Jacob PVSKT _ 0.077cm^2 (nature recipe).IV

Sample Area	Irradiance	Pre sweep delay	Bias Direction	Max Reverse Bias	Max Forward Bias	Num Sweep Points	Dwell Time	Current Limit	PVIV 10A I-AMP	Average	Dark Current	Rshunt V-Lo	Rshunt V-Hi
0.077170	1.0000	0.2000	0	-0.1000	1.2000	65	10	130	0	1	0	-0.6000	-0.1000

Voc V	Isc A	Jsc mA/cm2	Imax A	Vmax V	Pmax mW	Fill Factor	Efficiency	R at Voc	R at Isc	Power W	RShunt ohms	Cell Temp start	Cell Temp end	Exposure	Time	Date
1.04142	0.00144967	18.7855	0.00126315	0.820259	1.03611	68.6293	13.4263	93.2439	20614.256	0.00133650	NaN	NaN	NaN	5.750	20:42:52	04/18/2024

Vmeas	Imeas
1.2	-0.00213731
1.1797	-0.00183061
1.15935	-0.00152819
1.13905	-0.00123513
1.11875	-0.00094751
1.09845	-0.00067700
1.0781	-0.00041820
1.0578	-0.00017400
1.0375	0.00005224
1.0172	0.00026065
0.99685	0.00045324
0.97655	0.00062323
0.95625	0.00077058
0.93595	0.00089527
0.9156	0.00099872
0.8953	0.00107468
0.875	0.00114431
0.8547	0.00119779
0.83435	0.00123963
0.81405	0.00127178
0.79375	0.00129678
0.77345	0.00131652
0.7531	0.00133275
0.7328	0.00134586
0.7125	0.00135647
0.6922	0.00136498
0.67185	0.00137366
0.65155	0.00137967
0.63125	0.00138567
0.61095	0.00139124
0.5906	0.00139505
0.5703	0.00140023
0.55	0.00140412
0.5297	0.00140719
0.50935	0.00141031
0.48905	0.00141336
0.46875	0.00141618
0.44845	0.00141913
0.4281	0.00142187
0.4078	0.00142390
0.3875	0.00142605
0.3672	0.00142771
0.3469	0.00142932
0.32655	0.00143158
0.30625	0.00143303
0.28595	0.00143438
0.26565	0.00143598
0.2453	0.00143750
0.225	0.00143877
0.2047	0.00144030
0.1844	0.00144153
0.16405	0.00144257
0.14375	0.00144387
0.12345	0.00144486
0.10315	0.00144564
0.08280000	0.00144652
0.06250000	0.00144730
0.04220000	0.00144802
0.02190000	0.00144885
0.00155000	0.00144980
-0.01875000	0.00145068
-0.03905000	0.00145115
-0.05935000	0.00145180
-0.07970000	0.00145247
-0.1	0.00145309