File: Data/AD_2024_04_18/IV_data/2024-04-18/AD002-1_ITO+SnO2+PVSK+C6Br+Spiro+Carbon (Air Quench)  2024-04-18 20-27-18.txt
Device Id	Operator	Recipe
AD002-1_ITO+SnO2+PVSK+C6Br+Spiro+Carbon (Air Quench) 	Unknown	Jacob PVSKT _ 0.077cm^2 (nature recipe).IV

Sample Area	Irradiance	Pre sweep delay	Bias Direction	Max Reverse Bias	Max Forward Bias	Num Sweep Points	Dwell Time	Current Limit	PVIV 10A I-AMP	Average	Dark Current	Rshunt V-Lo	Rshunt V-Hi
0.077170	1.0000	0.2000	0	-0.1000	1.2000	65	10	130	0	1	0	-0.6000	-0.1000

Voc V	Isc A	Jsc mA/cm2	Imax A	Vmax V	Pmax mW	Fill Factor	Efficiency	R at Voc	R at Isc	Power W	RShunt ohms	Cell Temp start	Cell Temp end	Exposure	Time	Date
0.983859	0.00166879	21.6249	0.00127077	0.549764	0.698623	42.5508	9.0530	340.773	3472.171	0.00113112	NaN	NaN	NaN	5.672	20:27:18	04/18/2024

Vmeas	Imeas
1.2	-0.00065548
1.1797	-0.00059083
1.15935	-0.00051929
1.13905	-0.00046077
1.11875	-0.00039835
1.09845	-0.00033631
1.0781	-0.00027644
1.0578	-0.00021619
1.0375	-0.00015617
1.0172	-0.00009713
0.99685	-0.00003834
0.97655	0.00002002
0.95625	0.00007874
0.93595	0.00013731
0.9156	0.00020273
0.8953	0.00026212
0.875	0.00031216
0.8547	0.00037146
0.83435	0.00043166
0.81405	0.00049451
0.79375	0.00056108
0.77345	0.00061467
0.7531	0.00067513
0.7328	0.00074822
0.7125	0.00082087
0.6922	0.00088345
0.67185	0.00092656
0.65155	0.00097127
0.63125	0.00104375
0.61095	0.00110147
0.5906	0.00116494
0.5703	0.00121690
0.55	0.00127378
0.5297	0.00131278
0.50935	0.00135408
0.48905	0.00138723
0.46875	0.00142450
0.44845	0.00145805
0.4281	0.00148222
0.4078	0.00150349
0.3875	0.00151991
0.3672	0.00153850
0.3469	0.00155227
0.32655	0.00156331
0.30625	0.00157260
0.28595	0.00158252
0.26565	0.00158856
0.2453	0.00159703
0.225	0.00160400
0.2047	0.00161119
0.1844	0.00161571
0.16405	0.00162119
0.14375	0.00163282
0.12345	0.00163171
0.10315	0.00163838
0.08280000	0.00164724
0.06250000	0.00164868
0.04220000	0.00165602
0.02190000	0.00166787
0.00155000	0.00167800
-0.01875000	0.00168066
-0.03905000	0.00168248
-0.05935000	0.00168458
-0.07970000	0.00168453
-0.1	0.00168718