File: Data/AD_2024_04_18/IV_data/2024-04-18/AD003-2_ITO+SnO2+PVSK+C6Br+Spiro+Carbon (Air Quench)  2024-04-18 20-35-07.txt
Device Id	Operator	Recipe
AD003-2_ITO+SnO2+PVSK+C6Br+Spiro+Carbon (Air Quench) 	Unknown	Jacob PVSKT _ 0.077cm^2 (nature recipe).IV

Sample Area	Irradiance	Pre sweep delay	Bias Direction	Max Reverse Bias	Max Forward Bias	Num Sweep Points	Dwell Time	Current Limit	PVIV 10A I-AMP	Average	Dark Current	Rshunt V-Lo	Rshunt V-Hi
0.077170	1.0000	0.2000	0	-0.1000	1.2000	65	10	130	0	1	0	-0.6000	-0.1000

Voc V	Isc A	Jsc mA/cm2	Imax A	Vmax V	Pmax mW	Fill Factor	Efficiency	R at Voc	R at Isc	Power W	RShunt ohms	Cell Temp start	Cell Temp end	Exposure	Time	Date
0.95584	0.00141853	18.3819	0.00108391	0.705086	0.764249	56.3650	9.9034	144.664	1102.829	0.00102206	NaN	NaN	NaN	6.219	20:35:07	04/18/2024

Vmeas	Imeas
1.2	-0.00198355
1.1797	-0.00190091
1.15935	-0.00175147
1.13905	-0.00159890
1.11875	-0.00138139
1.09845	-0.00119938
1.0781	-0.00100679
1.0578	-0.00120799
1.0375	-0.00167899
1.0172	-0.00153747
0.99685	-0.00135889
0.97655	-0.00014727
0.95625	-0.00000326
0.93595	0.00013917
0.9156	0.00027731
0.8953	0.00040596
0.875	0.00052395
0.8547	0.00063093
0.83435	0.00072383
0.81405	0.00080914
0.79375	0.00070833
0.77345	0.00018856
0.7531	0.00098383
0.7328	0.00104787
0.7125	0.00032068
0.6922	0.00109101
0.67185	0.00113507
0.65155	0.00117150
0.63125	0.00119824
0.61095	0.00122251
0.5906	0.00124102
0.5703	0.00125871
0.55	0.00127251
0.5297	0.00128723
0.50935	0.00130120
0.48905	0.00131346
0.46875	0.00132559
0.44845	0.00133663
0.4281	0.00134711
0.4078	0.00135692
0.3875	0.00136542
0.3672	0.00137255
0.3469	0.00117019
0.32655	0.00111849
0.30625	0.00111416
0.28595	0.00114105
0.26565	0.00115424
0.2453	0.00117314
0.225	0.00119255
0.2047	0.00121373
0.1844	0.00123669
0.16405	0.00125742
0.14375	0.00127602
0.12345	0.00129797
0.10315	0.00131783
0.08280000	0.00133850
0.06250000	0.00136046
0.04220000	0.00138072
0.02190000	0.00140026
0.00155000	0.00141981
-0.01875000	0.00143944
-0.03905000	0.00145635
-0.05935000	0.00147468
-0.07970000	0.00149291
-0.1	0.00150008