File: Data/AD_2024_04_18/IV_data/2024-04-18/AD002-2_ITO+SnO2+PVSK+C6Br+Spiro+Carbon (Air Quench)  2024-04-18 20-28-38.txt
Device Id	Operator	Recipe
AD002-2_ITO+SnO2+PVSK+C6Br+Spiro+Carbon (Air Quench) 	Unknown	Jacob PVSKT _ 0.077cm^2 (nature recipe).IV

Sample Area	Irradiance	Pre sweep delay	Bias Direction	Max Reverse Bias	Max Forward Bias	Num Sweep Points	Dwell Time	Current Limit	PVIV 10A I-AMP	Average	Dark Current	Rshunt V-Lo	Rshunt V-Hi
0.077170	1.0000	0.2000	0	-0.1000	1.2000	65	10	130	0	1	0	-0.6000	-0.1000

Voc V	Isc A	Jsc mA/cm2	Imax A	Vmax V	Pmax mW	Fill Factor	Efficiency	R at Voc	R at Isc	Power W	RShunt ohms	Cell Temp start	Cell Temp end	Exposure	Time	Date
0.956742	0.00126618	16.4077	0.00109326	0.554905	0.606655	50.0784	7.8613	373.183	1550.310	0.00087887	NaN	NaN	NaN	5.891	20:28:38	04/18/2024

Vmeas	Imeas
1.2	-0.00058725
1.1797	-0.00055177
1.15935	-0.00050068
1.13905	-0.00044277
1.11875	-0.00038669
1.09845	-0.00042832
1.0781	-0.00038232
1.0578	-0.00021834
1.0375	-0.00016385
1.0172	-0.00010939
0.99685	-0.00005470
0.97655	-0.00000038
0.95625	-0.00006440
0.93595	-0.00001229
0.9156	0.00003930
0.8953	0.00021182
0.875	0.00026611
0.8547	0.00028291
0.83435	0.00022775
0.81405	0.00026921
0.79375	0.00031145
0.77345	0.00036186
0.7531	0.00040603
0.7328	0.00045135
0.7125	0.00068660
0.6922	0.00075174
0.67185	0.00081267
0.65155	0.00087003
0.63125	0.00092286
0.61095	0.00097349
0.5906	0.00102106
0.5703	0.00105059
0.55	0.00110842
0.5297	0.00114170
0.50935	0.00117151
0.48905	0.00119922
0.46875	0.00122039
0.44845	0.00124010
0.4281	0.00125599
0.4078	0.00126687
0.3875	0.00128230
0.3672	0.00129485
0.3469	0.00130431
0.32655	0.00131571
0.30625	0.00132396
0.28595	0.00112751
0.26565	0.00112003
0.2453	0.00111978
0.225	0.00113952
0.2047	0.00115168
0.1844	0.00115558
0.16405	0.00116441
0.14375	0.00117082
0.12345	0.00118373
0.10315	0.00120059
0.08280000	0.00121138
0.06250000	0.00122728
0.04220000	0.00123904
0.02190000	0.00124812
0.00155000	0.00126014
-0.01875000	0.00138613
-0.03905000	0.00130173
-0.05935000	0.00130928
-0.07970000	0.00131702
-0.1	0.00132403