File: Data/AD_2024_04_18/IV_data/2024-04-18/AD001-1_ITO+SnO2+PVSK+C6Br+Spiro+Carbon (Air Quench)  2024-04-18 20-16-15.txt
Device Id	Operator	Recipe
AD001-1_ITO+SnO2+PVSK+C6Br+Spiro+Carbon (Air Quench) 	Unknown	Jacob PVSKT _ 0.077cm^2 (nature recipe).IV

Sample Area	Irradiance	Pre sweep delay	Bias Direction	Max Reverse Bias	Max Forward Bias	Num Sweep Points	Dwell Time	Current Limit	PVIV 10A I-AMP	Average	Dark Current	Rshunt V-Lo	Rshunt V-Hi
0.077170	1.0000	0.2000	0	-0.1000	1.2000	65	10	130	0	1	0	-0.6000	-0.1000

Voc V	Isc A	Jsc mA/cm2	Imax A	Vmax V	Pmax mW	Fill Factor	Efficiency	R at Voc	R at Isc	Power W	RShunt ohms	Cell Temp start	Cell Temp end	Exposure	Time	Date
0.980906	0.00153971	19.9522	0.00124262	0.727971	0.904591	59.8942	11.7221	115.959	6822.946	0.00125544	NaN	NaN	NaN	5.734	20:16:15	04/18/2024

Vmeas	Imeas
1.2	-0.00241021
1.1797	-0.00215464
1.15935	-0.00190132
1.13905	-0.00165752
1.11875	-0.00141771
1.09845	-0.00118512
1.0781	-0.00095498
1.0578	-0.00073777
1.0375	-0.00052968
1.0172	-0.00032732
0.99685	-0.00013584
0.97655	0.00004265
0.95625	0.00021392
0.93595	0.00037328
0.9156	0.00051954
0.8953	0.00065050
0.875	0.00077077
0.8547	0.00087422
0.83435	0.00096597
0.81405	0.00103915
0.79375	0.00108767
0.77345	0.00114605
0.7531	0.00119620
0.7328	0.00123635
0.7125	0.00126702
0.6922	0.00129340
0.67185	0.00131597
0.65155	0.00133487
0.63125	0.00135238
0.61095	0.00136622
0.5906	0.00137894
0.5703	0.00139281
0.55	0.00140378
0.5297	0.00141336
0.50935	0.00142272
0.48905	0.00143142
0.46875	0.00143995
0.44845	0.00144772
0.4281	0.00145561
0.4078	0.00146187
0.3875	0.00146758
0.3672	0.00147401
0.3469	0.00147909
0.32655	0.00148388
0.30625	0.00148931
0.28595	0.00149355
0.26565	0.00149777
0.2453	0.00150230
0.225	0.00150662
0.2047	0.00151043
0.1844	0.00151403
0.16405	0.00151723
0.14375	0.00151994
0.12345	0.00152370
0.10315	0.00152698
0.08280000	0.00152947
0.06250000	0.00153237
0.04220000	0.00153514
0.02190000	0.00153710
0.00155000	0.00153931
-0.01875000	0.00154552
-0.03905000	0.00154484
-0.05935000	0.00154674
-0.07970000	0.00154819
-0.1	0.00155049