File: Data/AD_2024_04_18/IV_data/2024-04-18/AD006-2_ITO+SnO2+PVSK+C6Br+Spiro+Carbon (Air Quench)  2024-04-18 20-55-54.txt
Device Id	Operator	Recipe
AD006-2_ITO+SnO2+PVSK+C6Br+Spiro+Carbon (Air Quench) 	Unknown	Jacob PVSKT _ 0.077cm^2 (nature recipe).IV

Sample Area	Irradiance	Pre sweep delay	Bias Direction	Max Reverse Bias	Max Forward Bias	Num Sweep Points	Dwell Time	Current Limit	PVIV 10A I-AMP	Average	Dark Current	Rshunt V-Lo	Rshunt V-Hi
0.077170	1.0000	0.2000	0	-0.1000	1.2000	65	10	130	0	1	0	-0.6000	-0.1000

Voc V	Isc A	Jsc mA/cm2	Imax A	Vmax V	Pmax mW	Fill Factor	Efficiency	R at Voc	R at Isc	Power W	RShunt ohms	Cell Temp start	Cell Temp end	Exposure	Time	Date
0.935348	0.00168599	21.8477	0.00115938	0.647788	0.751032	47.6245	9.7322	157.945	2044.818	0.00116520	NaN	NaN	NaN	5.812	20:55:54	04/18/2024

Vmeas	Imeas
1.2	-0.00183198
1.1797	-0.00167617
1.15935	-0.00152279
1.13905	-0.00136740
1.11875	-0.00121685
1.09845	-0.00108002
1.0781	-0.00093409
1.0578	-0.00080944
1.0375	-0.00064876
1.0172	-0.00052228
0.99685	-0.00038004
0.97655	-0.00025775
0.95625	-0.00014252
0.93595	0.00000000
0.9156	0.00012234
0.8953	0.00025444
0.875	0.00037231
0.8547	0.00048641
0.83435	0.00058782
0.81405	0.00068334
0.79375	0.00078107
0.77345	0.00084156
0.7531	0.00091462
0.7328	0.00096543
0.7125	0.00103692
0.6922	0.00106657
0.67185	0.00111158
0.65155	0.00115388
0.63125	0.00119032
0.61095	0.00122248
0.5906	0.00125092
0.5703	0.00128146
0.55	0.00131361
0.5297	0.00133780
0.50935	0.00138170
0.48905	0.00138040
0.46875	0.00139791
0.44845	0.00141515
0.4281	0.00143161
0.4078	0.00144808
0.3875	0.00146499
0.3672	0.00147812
0.3469	0.00149224
0.32655	0.00150497
0.30625	0.00151809
0.28595	0.00153199
0.26565	0.00154449
0.2453	0.00155631
0.225	0.00156778
0.2047	0.00157913
0.1844	0.00159056
0.16405	0.00160391
0.14375	0.00161632
0.12345	0.00162737
0.10315	0.00163747
0.08280000	0.00164718
0.06250000	0.00165738
0.04220000	0.00166690
0.02190000	0.00167637
0.00155000	0.00168627
-0.01875000	0.00169572
-0.03905000	0.00170482
-0.05935000	0.00171422
-0.07970000	0.00172314
-0.1	0.00173269