File: Data/AD_2024_04_18/IV_data/2024-04-18/AD001-2_ITO+SnO2+PVSK+C6Br+Spiro+Carbon (Air Quench)  2024-04-18 20-20-23.txt
Device Id	Operator	Recipe
AD001-2_ITO+SnO2+PVSK+C6Br+Spiro+Carbon (Air Quench) 	Unknown	Jacob PVSKT _ 0.077cm^2 (nature recipe).IV

Sample Area	Irradiance	Pre sweep delay	Bias Direction	Max Reverse Bias	Max Forward Bias	Num Sweep Points	Dwell Time	Current Limit	PVIV 10A I-AMP	Average	Dark Current	Rshunt V-Lo	Rshunt V-Hi
0.077170	1.0000	0.2000	0	-0.1000	1.2000	65	10	130	0	1	0	-0.6000	-0.1000

Voc V	Isc A	Jsc mA/cm2	Imax A	Vmax V	Pmax mW	Fill Factor	Efficiency	R at Voc	R at Isc	Power W	RShunt ohms	Cell Temp start	Cell Temp end	Exposure	Time	Date
0.992658	0.00151315	19.6081	0.00131367	0.770817	1.0126	67.4147	13.1217	95.0775	14706.774	0.00131337	NaN	NaN	NaN	5.750	20:20:23	04/18/2024

Vmeas	Imeas
1.2	-0.00267345
1.1797	-0.00237564
1.15935	-0.00208330
1.13905	-0.00179871
1.11875	-0.00152137
1.09845	-0.00125104
1.0781	-0.00098603
1.0578	-0.00073248
1.0375	-0.00048935
1.0172	-0.00025708
0.99685	-0.00003684
0.97655	0.00017062
0.95625	0.00036496
0.93595	0.00054205
0.9156	0.00070110
0.8953	0.00084237
0.875	0.00096403
0.8547	0.00105913
0.83435	0.00114626
0.81405	0.00121443
0.79375	0.00126791
0.77345	0.00130943
0.7531	0.00134040
0.7328	0.00136442
0.7125	0.00138255
0.6922	0.00139720
0.67185	0.00140874
0.65155	0.00141824
0.63125	0.00142660
0.61095	0.00143276
0.5906	0.00143906
0.5703	0.00144464
0.55	0.00144861
0.5297	0.00145354
0.50935	0.00145767
0.48905	0.00146186
0.46875	0.00146582
0.44845	0.00146922
0.4281	0.00147227
0.4078	0.00147547
0.3875	0.00147882
0.3672	0.00148103
0.3469	0.00148414
0.32655	0.00148618
0.30625	0.00148821
0.28595	0.00149171
0.26565	0.00149389
0.2453	0.00149562
0.225	0.00149751
0.2047	0.00149940
0.1844	0.00150107
0.16405	0.00150274
0.14375	0.00150422
0.12345	0.00150573
0.10315	0.00150691
0.08280000	0.00150825
0.06250000	0.00151015
0.04220000	0.00151130
0.02190000	0.00151233
0.00155000	0.00151364
-0.01875000	0.00151641
-0.03905000	0.00151551
-0.05935000	0.00151568
-0.07970000	0.00151689
-0.1	0.00151769