File: Data/AD_2024_04_18/IV_data/2024-04-18/AD005-3_ITO+SnO2+PVSK+C6Br+Spiro+Carbon (Air Quench)  2024-04-18 20-51-22.txt
Device Id	Operator	Recipe
AD005-3_ITO+SnO2+PVSK+C6Br+Spiro+Carbon (Air Quench) 	Unknown	Jacob PVSKT _ 0.077cm^2 (nature recipe).IV

Sample Area	Irradiance	Pre sweep delay	Bias Direction	Max Reverse Bias	Max Forward Bias	Num Sweep Points	Dwell Time	Current Limit	PVIV 10A I-AMP	Average	Dark Current	Rshunt V-Lo	Rshunt V-Hi
0.077170	1.0000	0.2000	0	-0.1000	1.2000	65	10	130	0	1	0	-0.6000	-0.1000

Voc V	Isc A	Jsc mA/cm2	Imax A	Vmax V	Pmax mW	Fill Factor	Efficiency	R at Voc	R at Isc	Power W	RShunt ohms	Cell Temp start	Cell Temp end	Exposure	Time	Date
1.04115	0.00173919	22.5372	0.00149133	0.799673	1.19258	65.8606	15.4539	95.2776	14155.736	0.00157043	NaN	NaN	NaN	5.750	20:51:22	04/18/2024

Vmeas	Imeas
1.2	-0.00196110
1.1797	-0.00168547
1.15935	-0.00141415
1.13905	-0.00115030
1.11875	-0.00089032
1.09845	-0.00064315
1.0781	-0.00040363
1.0578	-0.00017377
1.0375	0.00004483
1.0172	0.00025223
0.99685	0.00044847
0.97655	0.00062853
0.95625	0.00079274
0.93595	0.00094031
0.9156	0.00106242
0.8953	0.00117670
0.875	0.00127156
0.8547	0.00134953
0.83435	0.00141118
0.81405	0.00146270
0.79375	0.00150210
0.77345	0.00153339
0.7531	0.00155887
0.7328	0.00157907
0.7125	0.00159571
0.6922	0.00161036
0.67185	0.00162221
0.65155	0.00163238
0.63125	0.00164195
0.61095	0.00164923
0.5906	0.00165651
0.5703	0.00166388
0.55	0.00166957
0.5297	0.00167508
0.50935	0.00168013
0.48905	0.00168479
0.46875	0.00168940
0.44845	0.00169277
0.4281	0.00169677
0.4078	0.00170118
0.3875	0.00170383
0.3672	0.00170747
0.3469	0.00170994
0.32655	0.00171188
0.30625	0.00171483
0.28595	0.00171744
0.26565	0.00171930
0.2453	0.00172181
0.225	0.00172332
0.2047	0.00172515
0.1844	0.00172747
0.16405	0.00172824
0.14375	0.00173018
0.12345	0.00173176
0.10315	0.00173263
0.08280000	0.00173479
0.06250000	0.00173663
0.04220000	0.00173726
0.02190000	0.00173786
0.00155000	0.00173926
-0.01875000	0.00174160
-0.03905000	0.00174154
-0.05935000	0.00174302
-0.07970000	0.00174241
-0.1	0.00174358