File: Data/AD_2024_04_18/IV_data/2024-04-18/AD003-1_ITO+SnO2+PVSK+C6Br+Spiro+Carbon (Air Quench)  2024-04-18 20-34-08.txt
Device Id	Operator	Recipe
AD003-1_ITO+SnO2+PVSK+C6Br+Spiro+Carbon (Air Quench) 	Unknown	Jacob PVSKT _ 0.077cm^2 (nature recipe).IV

Sample Area	Irradiance	Pre sweep delay	Bias Direction	Max Reverse Bias	Max Forward Bias	Num Sweep Points	Dwell Time	Current Limit	PVIV 10A I-AMP	Average	Dark Current	Rshunt V-Lo	Rshunt V-Hi
0.077170	1.0000	0.2000	0	-0.1000	1.2000	65	10	130	0	1	0	-0.6000	-0.1000

Voc V	Isc A	Jsc mA/cm2	Imax A	Vmax V	Pmax mW	Fill Factor	Efficiency	R at Voc	R at Isc	Power W	RShunt ohms	Cell Temp start	Cell Temp end	Exposure	Time	Date
1.01902	0.00144361	18.7069	0.00131769	0.810534	1.06803	72.6024	13.8400	92.3855	35563.096	0.00132529	NaN	NaN	NaN	5.750	20:34:08	04/18/2024

Vmeas	Imeas
1.2	-0.00233012
1.1797	-0.00204565
1.15935	-0.00176122
1.13905	-0.00148363
1.11875	-0.00121214
1.09845	-0.00094336
1.0781	-0.00068612
1.0578	-0.00043749
1.0375	-0.00019920
1.0172	0.00002735
0.99685	0.00024101
0.97655	0.00044160
0.95625	0.00062415
0.93595	0.00078753
0.9156	0.00092993
0.8953	0.00104853
0.875	0.00113660
0.8547	0.00121402
0.83435	0.00127137
0.81405	0.00131157
0.79375	0.00134031
0.77345	0.00135968
0.7531	0.00137453
0.7328	0.00138346
0.7125	0.00139088
0.6922	0.00139683
0.67185	0.00140099
0.65155	0.00140439
0.63125	0.00140799
0.61095	0.00141044
0.5906	0.00141274
0.5703	0.00141521
0.55	0.00141781
0.5297	0.00141856
0.50935	0.00142052
0.48905	0.00142280
0.46875	0.00142406
0.44845	0.00142555
0.4281	0.00142691
0.4078	0.00142745
0.3875	0.00142925
0.3672	0.00143046
0.3469	0.00143187
0.32655	0.00143272
0.30625	0.00143390
0.28595	0.00143486
0.26565	0.00143571
0.2453	0.00143618
0.225	0.00143688
0.2047	0.00143783
0.1844	0.00143851
0.16405	0.00143905
0.14375	0.00144035
0.12345	0.00144056
0.10315	0.00144163
0.08280000	0.00144122
0.06250000	0.00144233
0.04220000	0.00144311
0.02190000	0.00144346
0.00155000	0.00144409
-0.01875000	0.00144450
-0.03905000	0.00144438
-0.05935000	0.00144491
-0.07970000	0.00144474
-0.1	0.00144563