File: Data/IV_data/2024-06-04-A3-1_A3-6/A3-1-A_ITO+SnO2+PVSK+C6Br+Spiro+Carbon (Antisolvent) 2024-06-04 15-07-54.txt
Device Id	Operator	Recipe
A3-1-A_ITO+SnO2+PVSK+C6Br+Spiro+Carbon (Antisolvent)	Unknown	Jacob PVSKT _ 0.077cm^2 (nature recipe).IV

Sample Area	Irradiance	Pre sweep delay	Bias Direction	Max Reverse Bias	Max Forward Bias	Num Sweep Points	Dwell Time	Current Limit	PVIV 10A I-AMP	Average	Dark Current	Rshunt V-Lo	Rshunt V-Hi
0.077170	1.0000	0.5000	0	-0.1000	1.2000	101	10	130	0	1	0	-0.6000	-0.1000

Voc V	Isc A	Jsc mA/cm2	Imax A	Vmax V	Pmax mW	Fill Factor	Efficiency	R at Voc	R at Isc	Power W	RShunt ohms	Cell Temp start	Cell Temp end	Exposure	Time	Date
0.00954833	0.00013870	1.79737	0.00000000	NaN	NaN	NaN	NaN	84.757	54.614	0.00000059	NaN	NaN	NaN	8.375	15:07:54	06/04/2024

Vmeas	Imeas
1.2	-0.02056880
1.187	-0.01761409
1.174	-0.01796302
1.161	-0.01787927
1.148	-0.01853002
1.135	-0.01705423
1.122	-0.01686820
1.109	-0.01778492
1.096	-0.01729259
1.083	-0.01706580
1.07	-0.01691177
1.057	-0.01644966
1.044	-0.01631941
1.031	-0.01574783
1.018	-0.01613907
1.005	-0.01594940
0.992	-0.01470360
0.979	-0.01492285
0.966	-0.01494206
0.953	-0.01389188
0.94	-0.01431278
0.927	-0.01443909
0.914	-0.01410012
0.901	-0.01409770
0.888	-0.01376844
0.875	-0.01334588
0.862	-0.01291525
0.849	-0.01211913
0.836	-0.01200024
0.823	-0.01172678
0.81	-0.01153762
0.797	-0.01152328
0.784	-0.01129918
0.771	-0.01128496
0.758	-0.01106785
0.745	-0.01082653
0.732	-0.01062154
0.719	-0.01037380
0.706	-0.01013697
0.693	-0.00990430
0.68	-0.00964774
0.667	-0.00945222
0.654	-0.00915985
0.641	-0.00902538
0.628	-0.00884075
0.615	-0.00863373
0.602	-0.00842164
0.589	-0.00822094
0.576	-0.00797660
0.563	-0.00780943
0.55	-0.00758725
0.537	-0.00741012
0.524	-0.00719289
0.511	-0.00701408
0.498	-0.00683411
0.485	-0.00663872
0.472	-0.00643092
0.459	-0.00623983
0.446	-0.00604686
0.433	-0.00584666
0.42	-0.00565470
0.407	-0.00544892
0.394	-0.00524556
0.381	-0.00505300
0.368	-0.00486826
0.355	-0.00468078
0.342	-0.00449223
0.329	-0.00430482
0.316	-0.00411315
0.303	-0.00393183
0.29	-0.00374207
0.277	-0.00355560
0.264	-0.00337344
0.251	-0.00319571
0.238	-0.00301002
0.225	-0.00283168
0.212	-0.00265308
0.199	-0.00247593
0.186	-0.00229741
0.173	-0.00211737
0.16	-0.00194115
0.147	-0.00176401
0.134	-0.00158926
0.121	-0.00141477
0.108	-0.00124299
0.09500000	-0.00107397
0.08200000	-0.00089534
0.06900000	-0.00073173
0.05600000	-0.00056900
0.04300000	-0.00040749
0.03000000	-0.00024956
0.01700000	-0.00008792
0.00400000	0.00006546
-0.00900000	0.00030350
-0.02200000	0.00042542
-0.03500000	0.00054589
-0.04800000	0.00066469
-0.06100000	0.00078296
-0.07400000	0.00090045
-0.08700000	0.00101744
-0.1	0.00112962