File: Data/IV_data/2024-06-04-A3-1_A3-6/A3-1-C_ITO+SnO2+PVSK+C6Br+Spiro+Carbon (Antisolvent) 2024-06-04 15-10-53.txt
Device Id	Operator	Recipe
A3-1-C_ITO+SnO2+PVSK+C6Br+Spiro+Carbon (Antisolvent)	Unknown	Jacob PVSKT _ 0.077cm^2 (nature recipe).IV

Sample Area	Irradiance	Pre sweep delay	Bias Direction	Max Reverse Bias	Max Forward Bias	Num Sweep Points	Dwell Time	Current Limit	PVIV 10A I-AMP	Average	Dark Current	Rshunt V-Lo	Rshunt V-Hi
0.077170	1.0000	0.5000	0	-0.1000	1.2000	101	10	130	0	1	0	-0.6000	-0.1000

Voc V	Isc A	Jsc mA/cm2	Imax A	Vmax V	Pmax mW	Fill Factor	Efficiency	R at Voc	R at Isc	Power W	RShunt ohms	Cell Temp start	Cell Temp end	Exposure	Time	Date
0.02061272	0.00028740	3.72425	0.00023281	0.00400000	0.00093124	15.7196	0.0121	71.2403	73.274	0.00000297	NaN	NaN	NaN	8.359	15:10:53	06/04/2024

Vmeas	Imeas
1.2	-0.01863068
1.187	-0.01859047
1.174	-0.01883072
1.161	-0.01876238
1.148	-0.01762056
1.135	-0.01747691
1.122	-0.01732102
1.109	-0.01695554
1.096	-0.01681583
1.083	-0.01674690
1.07	-0.01642850
1.057	-0.01604179
1.044	-0.01591756
1.031	-0.01541817
1.018	-0.01553654
1.005	-0.01522197
0.992	-0.01530103
0.979	-0.01513099
0.966	-0.01487760
0.953	-0.01473720
0.94	-0.01450289
0.927	-0.01410677
0.914	-0.01386271
0.901	-0.01382456
0.888	-0.01367002
0.875	-0.01343264
0.862	-0.01323225
0.849	-0.01334800
0.836	-0.01310758
0.823	-0.01294804
0.81	-0.01269152
0.797	-0.01235866
0.784	-0.01222766
0.771	-0.01209897
0.758	-0.01183623
0.745	-0.01162788
0.732	-0.01134794
0.719	-0.01102780
0.706	-0.01084396
0.693	-0.01065125
0.68	-0.01032769
0.667	-0.01015892
0.654	-0.00991674
0.641	-0.00986711
0.628	-0.00962093
0.615	-0.00936638
0.602	-0.00915503
0.589	-0.00880631
0.576	-0.00860603
0.563	-0.00834828
0.55	-0.00815187
0.537	-0.00791765
0.524	-0.00771344
0.511	-0.00748750
0.498	-0.00725985
0.485	-0.00706526
0.472	-0.00681496
0.459	-0.00662625
0.446	-0.00648712
0.433	-0.00628587
0.42	-0.00601188
0.407	-0.00582024
0.394	-0.00560643
0.381	-0.00541704
0.368	-0.00524667
0.355	-0.00505000
0.342	-0.00484728
0.329	-0.00462177
0.316	-0.00441801
0.303	-0.00423207
0.29	-0.00402516
0.277	-0.00382005
0.264	-0.00362219
0.251	-0.00342914
0.238	-0.00323076
0.225	-0.00302869
0.212	-0.00281178
0.199	-0.00261715
0.186	-0.00242662
0.173	-0.00224251
0.16	-0.00205023
0.147	-0.00185601
0.134	-0.00166187
0.121	-0.00145923
0.108	-0.00127023
0.09500000	-0.00106564
0.08200000	-0.00086265
0.06900000	-0.00068159
0.05600000	-0.00049953
0.04300000	-0.00031592
0.03000000	-0.00013177
0.01700000	0.00005071
0.00400000	0.00023281
-0.00900000	0.00041023
-0.02200000	0.00058728
-0.03500000	0.00076393
-0.04800000	0.00093969
-0.06100000	0.00112058
-0.07400000	0.00130312
-0.08700000	0.00148419
-0.1	0.00166410