File: Data/IV_data/2024-06-04-A3-1_A3-6/A3-1-E_ITO+SnO2+PVSK+C6Br+Spiro+Carbon (Antisolvent) 2024-06-04 15-09-34.txt
Device Id	Operator	Recipe
A3-1-D_ITO+SnO2+PVSK+C6Br+Spiro+Carbon (Antisolvent)	Unknown	Jacob PVSKT _ 0.077cm^2 (nature recipe).IV

Sample Area	Irradiance	Pre sweep delay	Bias Direction	Max Reverse Bias	Max Forward Bias	Num Sweep Points	Dwell Time	Current Limit	PVIV 10A I-AMP	Average	Dark Current	Rshunt V-Lo	Rshunt V-Hi
0.077170	1.0000	0.5000	0	-0.1000	1.2000	101	10	130	0	1	0	-0.6000	-0.1000

Voc V	Isc A	Jsc mA/cm2	Imax A	Vmax V	Pmax mW	Fill Factor	Efficiency	R at Voc	R at Isc	Power W	RShunt ohms	Cell Temp start	Cell Temp end	Exposure	Time	Date
1.05713	0.00147044	19.0546	0.00115152	0.763114	0.878745	56.5311	11.3871	148.654	7346.290	0.00126114	NaN	NaN	NaN	8.484	15:09:34	06/04/2024

Vmeas	Imeas
1.2	-0.00096392
1.187	-0.00088247
1.174	-0.00079617
1.161	-0.00070774
1.148	-0.00061844
1.135	-0.00052902
1.122	-0.00043973
1.109	-0.00035140
1.096	-0.00026415
1.083	-0.00017802
1.07	-0.00008561
1.057	0.00000394
1.044	0.00009609
1.031	0.00018370
1.018	0.00025928
1.005	0.00033249
0.992	0.00040356
0.979	0.00047186
0.966	0.00053734
0.953	0.00059919
0.94	0.00065832
0.927	0.00071387
0.914	0.00076599
0.901	0.00081490
0.888	0.00086023
0.875	0.00090223
0.862	0.00094099
0.849	0.00097669
0.836	0.00100977
0.823	0.00103991
0.81	0.00106930
0.797	0.00109453
0.784	0.00111767
0.771	0.00113910
0.758	0.00115902
0.745	0.00117725
0.732	0.00119411
0.719	0.00120955
0.706	0.00122403
0.693	0.00123768
0.68	0.00125029
0.667	0.00126222
0.654	0.00127338
0.641	0.00128327
0.628	0.00129267
0.615	0.00130215
0.602	0.00131056
0.589	0.00131882
0.576	0.00132630
0.563	0.00133376
0.55	0.00134026
0.537	0.00134683
0.524	0.00135364
0.511	0.00135899
0.498	0.00136484
0.485	0.00136996
0.472	0.00137519
0.459	0.00138032
0.446	0.00138501
0.433	0.00138968
0.42	0.00139408
0.407	0.00139771
0.394	0.00140169
0.381	0.00140550
0.368	0.00140892
0.355	0.00141235
0.342	0.00141577
0.329	0.00141921
0.316	0.00142229
0.303	0.00142491
0.29	0.00142774
0.277	0.00143070
0.264	0.00143367
0.251	0.00143592
0.238	0.00143809
0.225	0.00144036
0.212	0.00144311
0.199	0.00144509
0.186	0.00144684
0.173	0.00144851
0.16	0.00145090
0.147	0.00145254
0.134	0.00145473
0.121	0.00145662
0.108	0.00145802
0.09500000	0.00145990
0.08200000	0.00146117
0.06900000	0.00146271
0.05600000	0.00146400
0.04300000	0.00146539
0.03000000	0.00146725
0.01700000	0.00146886
0.00400000	0.00146972
-0.00900000	0.00147425
-0.02200000	0.00147328
-0.03500000	0.00147443
-0.04800000	0.00147548
-0.06100000	0.00147645
-0.07400000	0.00147767
-0.08700000	0.00147890
-0.1	0.00148000