File: Data/IV_data/2024-06-04-A3-1_A3-6/A3-2-D_ITO+SnO2+PVSK+C6Br+Spiro+Carbon (Antisolvent) 2024-06-04 15-15-43.txt
Device Id	Operator	Recipe
A3-2-D_ITO+SnO2+PVSK+C6Br+Spiro+Carbon (Antisolvent)	Unknown	Jacob PVSKT _ 0.077cm^2 (nature recipe).IV

Sample Area	Irradiance	Pre sweep delay	Bias Direction	Max Reverse Bias	Max Forward Bias	Num Sweep Points	Dwell Time	Current Limit	PVIV 10A I-AMP	Average	Dark Current	Rshunt V-Lo	Rshunt V-Hi
0.077170	1.0000	0.5000	0	-0.1000	1.2000	101	10	130	0	1	0	-0.6000	-0.1000

Voc V	Isc A	Jsc mA/cm2	Imax A	Vmax V	Pmax mW	Fill Factor	Efficiency	R at Voc	R at Isc	Power W	RShunt ohms	Cell Temp start	Cell Temp end	Exposure	Time	Date
0.02949604	0.00026054	3.37621	0.00000000	NaN	NaN	NaN	NaN	121.127	109.457	0.00000374	NaN	NaN	NaN	8.437	15:15:43	06/04/2024

Vmeas	Imeas
1.2	-0.00896320
1.187	-0.00911090
1.174	-0.00852084
1.161	-0.00817239
1.148	-0.00889774
1.135	-0.00940824
1.122	-0.00861227
1.109	-0.00908491
1.096	-0.00855962
1.083	-0.00852410
1.07	-0.00840526
1.057	-0.00922188
1.044	-0.00881475
1.031	-0.00872621
1.018	-0.00852925
1.005	-0.00824961
0.992	-0.00754748
0.979	-0.00819762
0.966	-0.00781507
0.953	-0.00730443
0.94	-0.00765365
0.927	-0.00739408
0.914	-0.00751884
0.901	-0.00734359
0.888	-0.00723160
0.875	-0.00718354
0.862	-0.00750046
0.849	-0.00788070
0.836	-0.00780604
0.823	-0.00774562
0.81	-0.00757744
0.797	-0.00746814
0.784	-0.00725054
0.771	-0.00729671
0.758	-0.00716990
0.745	-0.00701936
0.732	-0.00668976
0.719	-0.00653801
0.706	-0.00636137
0.693	-0.00625922
0.68	-0.00661378
0.667	-0.00651056
0.654	-0.00643810
0.641	-0.00620704
0.628	-0.00608002
0.615	-0.00592320
0.602	-0.00577089
0.589	-0.00555872
0.576	-0.00544497
0.563	-0.00529196
0.55	-0.00510732
0.537	-0.00490163
0.524	-0.00488448
0.511	-0.00472169
0.498	-0.00458100
0.485	-0.00444563
0.472	-0.00436913
0.459	-0.00420604
0.446	-0.00407799
0.433	-0.00395044
0.42	-0.00381949
0.407	-0.00369234
0.394	-0.00355549
0.381	-0.00341591
0.368	-0.00328802
0.355	-0.00315041
0.342	-0.00301918
0.329	-0.00289497
0.316	-0.00276607
0.303	-0.00263585
0.29	-0.00251801
0.277	-0.00239797
0.264	-0.00226867
0.251	-0.00213678
0.238	-0.00200330
0.225	-0.00185236
0.212	-0.00172367
0.199	-0.00159781
0.186	-0.00146868
0.173	-0.00134441
0.16	-0.00121736
0.147	-0.00108728
0.134	-0.00096834
0.121	-0.00084466
0.108	-0.00072039
0.09500000	-0.00059655
0.08200000	-0.00046927
0.06900000	-0.00034817
0.05600000	-0.00022773
0.04300000	-0.00010735
0.03000000	-0.00000416
0.01700000	0.00010316
0.00400000	0.00022400
-0.00900000	0.00034277
-0.02200000	0.00045976
-0.03500000	0.00057641
-0.04800000	0.00069188
-0.06100000	0.00080788
-0.07400000	0.00092297
-0.08700000	0.00103796
-0.1	0.00115622