File: Data/IV_data/2024-06-04-A3-1_A3-6/A3-2-A_ITO+SnO2+PVSK+C6Br+Spiro+Carbon (Antisolvent) 2024-06-04 15-12-56.txt
Device Id	Operator	Recipe
A3-2-A_ITO+SnO2+PVSK+C6Br+Spiro+Carbon (Antisolvent)	Unknown	Jacob PVSKT _ 0.077cm^2 (nature recipe).IV

Sample Area	Irradiance	Pre sweep delay	Bias Direction	Max Reverse Bias	Max Forward Bias	Num Sweep Points	Dwell Time	Current Limit	PVIV 10A I-AMP	Average	Dark Current	Rshunt V-Lo	Rshunt V-Hi
0.077170	1.0000	0.5000	0	-0.1000	1.2000	101	10	130	0	1	0	-0.6000	-0.1000

Voc V	Isc A	Jsc mA/cm2	Imax A	Vmax V	Pmax mW	Fill Factor	Efficiency	R at Voc	R at Isc	Power W	RShunt ohms	Cell Temp start	Cell Temp end	Exposure	Time	Date
0.00327542	0.00015752	2.0412	0.00000000	NaN	NaN	NaN	NaN	20.7937	20.794	0.00000026	NaN	NaN	NaN	8.359	15:12:56	06/04/2024

Vmeas	Imeas
1.2	-0.06865885
1.187	-0.06858805
1.174	-0.06817760
1.161	-0.06761973
1.148	-0.06692696
1.135	-0.06614725
1.122	-0.06528526
1.109	-0.06437016
1.096	-0.06360503
1.083	-0.06262338
1.07	-0.06468942
1.057	-0.06386603
1.044	-0.06334081
1.031	-0.06222197
1.018	-0.06139976
1.005	-0.06038257
0.992	-0.05958486
0.979	-0.05876965
0.966	-0.05755459
0.953	-0.05652884
0.94	-0.05572912
0.927	-0.05460678
0.914	-0.05401689
0.901	-0.05334871
0.888	-0.05248437
0.875	-0.05158982
0.862	-0.05070587
0.849	-0.04979373
0.836	-0.04876811
0.823	-0.04731719
0.81	-0.04531154
0.797	-0.04363813
0.784	-0.04284342
0.771	-0.04196205
0.758	-0.04142738
0.745	-0.04061207
0.732	-0.03982074
0.719	-0.03910134
0.706	-0.03829816
0.693	-0.03740150
0.68	-0.03647543
0.667	-0.03565944
0.654	-0.03476837
0.641	-0.03395382
0.628	-0.03317337
0.615	-0.03253421
0.602	-0.03174551
0.589	-0.03085412
0.576	-0.03003778
0.563	-0.02933484
0.55	-0.02851063
0.537	-0.02775906
0.524	-0.02701431
0.511	-0.02626682
0.498	-0.02555525
0.485	-0.02483052
0.472	-0.02411562
0.459	-0.02339024
0.446	-0.02259047
0.433	-0.02193791
0.42	-0.02121313
0.407	-0.02123645
0.394	-0.02049183
0.381	-0.01976533
0.368	-0.01904102
0.355	-0.01829487
0.342	-0.01756919
0.329	-0.01683712
0.316	-0.01611904
0.303	-0.01539646
0.29	-0.01469823
0.277	-0.01398799
0.264	-0.01329282
0.251	-0.01259101
0.238	-0.01189257
0.225	-0.01120821
0.212	-0.01051942
0.199	-0.00982246
0.186	-0.00914505
0.173	-0.00847125
0.16	-0.00779720
0.147	-0.00712919
0.134	-0.00646609
0.121	-0.00580715
0.108	-0.00515230
0.09500000	-0.00449981
0.08200000	-0.00385440
0.06900000	-0.00321208
0.05600000	-0.00256939
0.04300000	-0.00193338
0.03000000	-0.00129759
0.01700000	-0.00066551
0.00400000	-0.00003485
-0.00900000	0.00059034
-0.02200000	0.00121436
-0.03500000	0.00184906
-0.04800000	0.00248492
-0.06100000	0.00312468
-0.07400000	0.00376821
-0.08700000	0.00441529
-0.1	0.00506777