File: Data/IV_data/2024-06-04-A3-1_A3-6/A3-2-B_ITO+SnO2+PVSK+C6Br+Spiro+Carbon (Antisolvent) 2024-06-04 15-13-50.txt
Device Id	Operator	Recipe
A3-2-B_ITO+SnO2+PVSK+C6Br+Spiro+Carbon (Antisolvent)	Unknown	Jacob PVSKT _ 0.077cm^2 (nature recipe).IV

Sample Area	Irradiance	Pre sweep delay	Bias Direction	Max Reverse Bias	Max Forward Bias	Num Sweep Points	Dwell Time	Current Limit	PVIV 10A I-AMP	Average	Dark Current	Rshunt V-Lo	Rshunt V-Hi
0.077170	1.0000	0.5000	0	-0.1000	1.2000	101	10	130	0	1	0	-0.6000	-0.1000

Voc V	Isc A	Jsc mA/cm2	Imax A	Vmax V	Pmax mW	Fill Factor	Efficiency	R at Voc	R at Isc	Power W	RShunt ohms	Cell Temp start	Cell Temp end	Exposure	Time	Date
0.00152336	0.00010676	1.38341	0.00000000	NaN	NaN	NaN	NaN	14.2694	14.269	0.00000008	NaN	NaN	NaN	8.172	15:13:50	06/04/2024

Vmeas	Imeas
1.2	-0.02646297
1.187	-0.04425025
1.174	-0.04800282
1.161	-0.05531282
1.148	-0.06242038
1.135	-0.07018166
1.122	-0.06931193
1.109	-0.06853002
1.096	-0.07027349
1.083	-0.06880021
1.07	-0.07221312
1.057	-0.07187697
1.044	-0.07162113
1.031	-0.07052341
1.018	-0.06758715
1.005	-0.06867141
0.992	-0.06827915
0.979	-0.06742027
0.966	-0.06864984
0.953	-0.06791433
0.94	-0.06673213
0.927	-0.06733195
0.914	-0.06217189
0.901	-0.06212163
0.888	-0.06109792
0.875	-0.06113940
0.862	-0.05942817
0.849	-0.05893008
0.836	-0.05918134
0.823	-0.05871985
0.81	-0.05705692
0.797	-0.05605799
0.784	-0.05538548
0.771	-0.05579411
0.758	-0.05593002
0.745	-0.05548688
0.732	-0.05413831
0.719	-0.05443150
0.706	-0.05321052
0.693	-0.05398706
0.68	-0.05169737
0.667	-0.05008541
0.654	-0.04951600
0.641	-0.04811672
0.628	-0.04685146
0.615	-0.04606111
0.602	-0.04499879
0.589	-0.04436997
0.576	-0.04353791
0.563	-0.04256061
0.55	-0.04203282
0.537	-0.04081958
0.524	-0.04002445
0.511	-0.03887832
0.498	-0.03776963
0.485	-0.03668404
0.472	-0.03572612
0.459	-0.03480470
0.446	-0.03372743
0.433	-0.03263522
0.42	-0.03155715
0.407	-0.03037451
0.394	-0.02936731
0.381	-0.02839814
0.368	-0.02740829
0.355	-0.02666002
0.342	-0.02562466
0.329	-0.02463994
0.316	-0.02364978
0.303	-0.02262682
0.29	-0.02162967
0.277	-0.02064693
0.264	-0.01960392
0.251	-0.01858823
0.238	-0.01760314
0.225	-0.01659634
0.212	-0.01560416
0.199	-0.01459501
0.186	-0.01359351
0.173	-0.01256358
0.16	-0.01159750
0.147	-0.01062642
0.134	-0.00963455
0.121	-0.00867464
0.108	-0.00772392
0.09500000	-0.00676907
0.08200000	-0.00581767
0.06900000	-0.00487176
0.05600000	-0.00391491
0.04300000	-0.00296744
0.03000000	-0.00203242
0.01700000	-0.00110046
0.00400000	-0.00017356
-0.00900000	0.00073748
-0.02200000	0.00159908
-0.03500000	0.00246744
-0.04800000	0.00333263
-0.06100000	0.00419437
-0.07400000	0.00504900
-0.08700000	0.00589819
-0.1	0.00671802