File: Data/IV_data/2024-06-04-A3-1_A3-6/A3-2-C_ITO+SnO2+PVSK+C6Br+Spiro+Carbon (Antisolvent) 2024-06-04 15-14-15.txt
Device Id	Operator	Recipe
A3-2-C_ITO+SnO2+PVSK+C6Br+Spiro+Carbon (Antisolvent)	Unknown	Jacob PVSKT _ 0.077cm^2 (nature recipe).IV

Sample Area	Irradiance	Pre sweep delay	Bias Direction	Max Reverse Bias	Max Forward Bias	Num Sweep Points	Dwell Time	Current Limit	PVIV 10A I-AMP	Average	Dark Current	Rshunt V-Lo	Rshunt V-Hi
0.077170	1.0000	0.5000	0	-0.1000	1.2000	101	10	130	0	1	0	-0.6000	-0.1000

Voc V	Isc A	Jsc mA/cm2	Imax A	Vmax V	Pmax mW	Fill Factor	Efficiency	R at Voc	R at Isc	Power W	RShunt ohms	Cell Temp start	Cell Temp end	Exposure	Time	Date
0.00550437	0.00019973	2.58822	0.00000000	NaN	NaN	NaN	NaN	27.1299	27.723	0.00000055	NaN	NaN	NaN	8.359	15:14:15	06/04/2024

Vmeas	Imeas
1.2	-0.04595583
1.187	-0.04567334
1.174	-0.05117268
1.161	-0.05097653
1.148	-0.05018789
1.135	-0.04960337
1.122	-0.04916335
1.109	-0.04793578
1.096	-0.04749767
1.083	-0.04727163
1.07	-0.04684819
1.057	-0.04597701
1.044	-0.04533041
1.031	-0.04473454
1.018	-0.04379189
1.005	-0.04341595
0.992	-0.04255662
0.979	-0.04180975
0.966	-0.04132420
0.953	-0.04062702
0.94	-0.04016316
0.927	-0.03975335
0.914	-0.03974975
0.901	-0.03878684
0.888	-0.03842680
0.875	-0.03722333
0.862	-0.03649716
0.849	-0.03573003
0.836	-0.03515732
0.823	-0.03434236
0.81	-0.03387290
0.797	-0.03403922
0.784	-0.03309254
0.771	-0.03270742
0.758	-0.03120185
0.745	-0.03077719
0.732	-0.03073112
0.719	-0.03000758
0.706	-0.02935424
0.693	-0.02869380
0.68	-0.02842159
0.667	-0.02811090
0.654	-0.02772393
0.641	-0.02734136
0.628	-0.02623608
0.615	-0.02537332
0.602	-0.02520397
0.589	-0.02457912
0.576	-0.02437377
0.563	-0.02320374
0.55	-0.02248589
0.537	-0.02178883
0.524	-0.02149074
0.511	-0.02124361
0.498	-0.02023720
0.485	-0.01958820
0.472	-0.01878828
0.459	-0.01815952
0.446	-0.01777717
0.433	-0.01721691
0.42	-0.01663094
0.407	-0.01611704
0.394	-0.01564166
0.381	-0.01486490
0.368	-0.01429764
0.355	-0.01381142
0.342	-0.01340134
0.329	-0.01285021
0.316	-0.01227510
0.303	-0.01175784
0.29	-0.01125561
0.277	-0.01069275
0.264	-0.01017720
0.251	-0.00964172
0.238	-0.00910743
0.225	-0.00857207
0.212	-0.00803269
0.199	-0.00750211
0.186	-0.00697625
0.173	-0.00645370
0.16	-0.00593286
0.147	-0.00541805
0.134	-0.00490444
0.121	-0.00439330
0.108	-0.00388470
0.09500000	-0.00338075
0.08200000	-0.00288106
0.06900000	-0.00238757
0.05600000	-0.00189192
0.04300000	-0.00140150
0.03000000	-0.00090904
0.01700000	-0.00042373
0.00400000	0.00005545
-0.00900000	0.00052437
-0.02200000	0.00100220
-0.03500000	0.00146143
-0.04800000	0.00193686
-0.06100000	0.00241519
-0.07400000	0.00289361
-0.08700000	0.00337600
-0.1	0.00385499