File: Data/IV_data/2024-06-04-A3-1_A3-6/A3-4-B_ITO+SnO2+PVSK+C6Br+Spiro+Carbon (Air quench) 2024-06-04 15-20-38.txt
Device Id	Operator	Recipe
A3-4-B_ITO+SnO2+PVSK+C6Br+Spiro+Carbon (Antisolvent)	Unknown	Jacob PVSKT _ 0.077cm^2 (nature recipe).IV

Sample Area	Irradiance	Pre sweep delay	Bias Direction	Max Reverse Bias	Max Forward Bias	Num Sweep Points	Dwell Time	Current Limit	PVIV 10A I-AMP	Average	Dark Current	Rshunt V-Lo	Rshunt V-Hi
0.077170	1.0000	0.5000	0	-0.1000	1.2000	101	10	130	0	1	0	-0.6000	-0.1000

Voc V	Isc A	Jsc mA/cm2	Imax A	Vmax V	Pmax mW	Fill Factor	Efficiency	R at Voc	R at Isc	Power W	RShunt ohms	Cell Temp start	Cell Temp end	Exposure	Time	Date
0.415382	0.00111158	14.4043	0.00055537	0.211792	0.117623	25.4744	1.5242	354.292	391.008	0.00023379	NaN	NaN	NaN	8.359	15:20:38	06/04/2024

Vmeas	Imeas
1.2	-0.00339732
1.187	-0.00323698
1.174	-0.00315937
1.161	-0.00297319
1.148	-0.00286750
1.135	-0.00287332
1.122	-0.00277939
1.109	-0.00278065
1.096	-0.00270465
1.083	-0.00262258
1.07	-0.00254914
1.057	-0.00248010
1.044	-0.00240690
1.031	-0.00233706
1.018	-0.00226421
1.005	-0.00219394
0.992	-0.00212118
0.979	-0.00205513
0.966	-0.00198716
0.953	-0.00192881
0.94	-0.00186193
0.927	-0.00180513
0.914	-0.00174504
0.901	-0.00168655
0.888	-0.00163104
0.875	-0.00157731
0.862	-0.00152219
0.849	-0.00146813
0.836	-0.00141657
0.823	-0.00136426
0.81	-0.00131215
0.797	-0.00126050
0.784	-0.00120753
0.771	-0.00115433
0.758	-0.00108574
0.745	-0.00101847
0.732	-0.00099440
0.719	-0.00093875
0.706	-0.00088906
0.693	-0.00084225
0.68	-0.00078735
0.667	-0.00075269
0.654	-0.00071355
0.641	-0.00067826
0.628	-0.00063386
0.615	-0.00058266
0.602	-0.00054290
0.589	-0.00050561
0.576	-0.00046796
0.563	-0.00042785
0.55	-0.00039091
0.537	-0.00035213
0.524	-0.00031381
0.511	-0.00027569
0.498	-0.00023805
0.485	-0.00020043
0.472	-0.00016229
0.459	-0.00012438
0.446	-0.00008706
0.433	-0.00005021
0.42	-0.00001180
0.407	0.00002420
0.394	0.00006078
0.381	0.00009595
0.368	0.00013266
0.355	0.00016773
0.342	0.00020324
0.329	0.00023904
0.316	0.00027509
0.303	0.00031019
0.29	0.00034558
0.277	0.00037986
0.264	0.00041475
0.251	0.00045051
0.238	0.00048615
0.225	0.00052049
0.212	0.00055441
0.199	0.00058936
0.186	0.00062302
0.173	0.00065855
0.16	0.00069305
0.147	0.00072730
0.134	0.00076107
0.121	0.00079507
0.108	0.00082931
0.09500000	0.00086397
0.08200000	0.00089778
0.06900000	0.00093140
0.05600000	0.00096589
0.04300000	0.00099860
0.03000000	0.00103357
0.01700000	0.00106775
0.00400000	0.00110147
-0.00900000	0.00113540
-0.02200000	0.00116727
-0.03500000	0.00120103
-0.04800000	0.00123360
-0.06100000	0.00126471
-0.07400000	0.00129856
-0.08700000	0.00133264
-0.1	0.00136722