File: Data/IV_data/2024-06-04-A3-1_A3-6/A3-4-A_ITO+SnO2+PVSK+C6Br+Spiro+Carbon (Air quench) 2024-06-04 15-19-25.txt
Device Id	Operator	Recipe
A3-3-A_ITO+SnO2+PVSK+C6Br+Spiro+Carbon (Antisolvent)	Unknown	Jacob PVSKT _ 0.077cm^2 (nature recipe).IV

Sample Area	Irradiance	Pre sweep delay	Bias Direction	Max Reverse Bias	Max Forward Bias	Num Sweep Points	Dwell Time	Current Limit	PVIV 10A I-AMP	Average	Dark Current	Rshunt V-Lo	Rshunt V-Hi
0.077170	1.0000	0.5000	0	-0.1000	1.2000	101	10	130	0	1	0	-0.6000	-0.1000

Voc V	Isc A	Jsc mA/cm2	Imax A	Vmax V	Pmax mW	Fill Factor	Efficiency	R at Voc	R at Isc	Power W	RShunt ohms	Cell Temp start	Cell Temp end	Exposure	Time	Date
0.701477	0.00137680	17.8411	0.00076328	0.367683	0.280647	29.0587	3.6367	373.558	819.348	0.00053552	NaN	NaN	NaN	8.547	15:19:25	06/04/2024

Vmeas	Imeas
1.2	-0.00191128
1.187	-0.00182084
1.174	-0.00179455
1.161	-0.00177380
1.148	-0.00175079
1.135	-0.00170068
1.122	-0.00164401
1.109	-0.00158526
1.096	-0.00151735
1.083	-0.00146051
1.07	-0.00140307
1.057	-0.00132542
1.044	-0.00125680
1.031	-0.00119608
1.018	-0.00114279
1.005	-0.00108593
0.992	-0.00101986
0.979	-0.00095070
0.966	-0.00088434
0.953	-0.00084107
0.94	-0.00077558
0.927	-0.00072247
0.914	-0.00067637
0.901	-0.00062657
0.888	-0.00057627
0.875	-0.00052790
0.862	-0.00048166
0.849	-0.00043268
0.836	-0.00038402
0.823	-0.00034737
0.81	-0.00030642
0.797	-0.00026272
0.784	-0.00022341
0.771	-0.00018654
0.758	-0.00015607
0.745	-0.00011743
0.732	-0.00007762
0.719	-0.00004282
0.706	-0.00001517
0.693	0.00002603
0.68	0.00006092
0.667	0.00009272
0.654	0.00012243
0.641	0.00016035
0.628	0.00019442
0.615	0.00022508
0.602	0.00025647
0.589	0.00028729
0.576	0.00031568
0.563	0.00034442
0.55	0.00037638
0.537	0.00040496
0.524	0.00043139
0.511	0.00045677
0.498	0.00048709
0.485	0.00051931
0.472	0.00054479
0.459	0.00057647
0.446	0.00060135
0.433	0.00062586
0.42	0.00065407
0.407	0.00067954
0.394	0.00070899
0.381	0.00073394
0.368	0.00076482
0.355	0.00078870
0.342	0.00081381
0.329	0.00084565
0.316	0.00086521
0.303	0.00089650
0.29	0.00091428
0.277	0.00093862
0.264	0.00096577
0.251	0.00098351
0.238	0.00101092
0.225	0.00103270
0.212	0.00106054
0.199	0.00107545
0.186	0.00109864
0.173	0.00111575
0.16	0.00113921
0.147	0.00116119
0.134	0.00117634
0.121	0.00120604
0.108	0.00122203
0.09500000	0.00124765
0.08200000	0.00126804
0.06900000	0.00128506
0.05600000	0.00130291
0.04300000	0.00131856
0.03000000	0.00133992
0.01700000	0.00136043
0.00400000	0.00137817
-0.00900000	0.00139257
-0.02200000	0.00140701
-0.03500000	0.00142197
-0.04800000	0.00143516
-0.06100000	0.00144818
-0.07400000	0.00146074
-0.08700000	0.00147219
-0.1	0.00148119