File: Data/IV_data/2024-06-04-A3-1_A3-6/A3-4-C_ITO+SnO2+PVSK+C6Br+Spiro+Carbon (Air quench) 2024-06-04 15-21-52.txt
Device Id	Operator	Recipe
A3-4-C_ITO+SnO2+PVSK+C6Br+Spiro+Carbon (Antisolvent)	Unknown	Jacob PVSKT _ 0.077cm^2 (nature recipe).IV

Sample Area	Irradiance	Pre sweep delay	Bias Direction	Max Reverse Bias	Max Forward Bias	Num Sweep Points	Dwell Time	Current Limit	PVIV 10A I-AMP	Average	Dark Current	Rshunt V-Lo	Rshunt V-Hi
0.077170	1.0000	0.5000	0	-0.1000	1.2000	101	10	130	0	1	0	-0.6000	-0.1000

Voc V	Isc A	Jsc mA/cm2	Imax A	Vmax V	Pmax mW	Fill Factor	Efficiency	R at Voc	R at Isc	Power W	RShunt ohms	Cell Temp start	Cell Temp end	Exposure	Time	Date
0.250268	0.00094867	12.2932	0.00048007	0.124886	0.05995464	25.2524	0.7769	263.201	267.622	0.00011973	NaN	NaN	NaN	8.562	15:21:52	06/04/2024

Vmeas	Imeas
1.2	-0.00446468
1.187	-0.00467342
1.174	-0.00446443
1.161	-0.00432732
1.148	-0.00416093
1.135	-0.00430835
1.122	-0.00411341
1.109	-0.00401677
1.096	-0.00395125
1.083	-0.00397301
1.07	-0.00388200
1.057	-0.00379584
1.044	-0.00369706
1.031	-0.00359847
1.018	-0.00351299
1.005	-0.00340236
0.992	-0.00337158
0.979	-0.00339281
0.966	-0.00326509
0.953	-0.00322623
0.94	-0.00317403
0.927	-0.00309816
0.914	-0.00288204
0.901	-0.00296678
0.888	-0.00280284
0.875	-0.00275364
0.862	-0.00264268
0.849	-0.00251608
0.836	-0.00257184
0.823	-0.00251985
0.81	-0.00246480
0.797	-0.00241962
0.784	-0.00232950
0.771	-0.00231230
0.758	-0.00221564
0.745	-0.00219584
0.732	-0.00211594
0.719	-0.00205125
0.706	-0.00199092
0.693	-0.00193584
0.68	-0.00186259
0.667	-0.00181322
0.654	-0.00172527
0.641	-0.00166629
0.628	-0.00159665
0.615	-0.00154333
0.602	-0.00145760
0.589	-0.00141026
0.576	-0.00134812
0.563	-0.00128693
0.55	-0.00121779
0.537	-0.00116421
0.524	-0.00108597
0.511	-0.00105856
0.498	-0.00100727
0.485	-0.00095987
0.472	-0.00089916
0.459	-0.00082747
0.446	-0.00076513
0.433	-0.00071576
0.42	-0.00066139
0.407	-0.00060855
0.394	-0.00056407
0.381	-0.00051178
0.368	-0.00046071
0.355	-0.00040655
0.342	-0.00035524
0.329	-0.00030646
0.316	-0.00025668
0.303	-0.00020721
0.29	-0.00015686
0.277	-0.00010646
0.264	-0.00005246
0.251	-0.00000220
0.238	0.00004632
0.225	0.00009769
0.212	0.00014966
0.199	0.00019905
0.186	0.00024986
0.173	0.00030120
0.16	0.00034766
0.147	0.00039712
0.134	0.00044557
0.121	0.00049510
0.108	0.00054506
0.09500000	0.00059417
0.08200000	0.00064316
0.06900000	0.00069152
0.05600000	0.00073994
0.04300000	0.00078846
0.03000000	0.00083731
0.01700000	0.00088566
0.00400000	0.00093372
-0.00900000	0.00098230
-0.02200000	0.00102958
-0.03500000	0.00107237
-0.04800000	0.00112276
-0.06100000	0.00117282
-0.07400000	0.00122209
-0.08700000	0.00127158
-0.1	0.00132085