File: Data/IV_data/2024-06-04-A3-1_A3-6/A3-5-E_ITO+SnO2+PVSK+C6Br+Spiro+Carbon (Air quench) 2024-06-04 15-28-46.txt
Device Id	Operator	Recipe
A3-5-E_ITO+SnO2+PVSK+C6Br+Spiro+Carbon (Antisolvent)	Unknown	Jacob PVSKT _ 0.077cm^2 (nature recipe).IV

Sample Area	Irradiance	Pre sweep delay	Bias Direction	Max Reverse Bias	Max Forward Bias	Num Sweep Points	Dwell Time	Current Limit	PVIV 10A I-AMP	Average	Dark Current	Rshunt V-Lo	Rshunt V-Hi
0.077170	1.0000	0.5000	0	-0.1000	1.2000	101	10	130	0	1	0	-0.6000	-0.1000

Voc V	Isc A	Jsc mA/cm2	Imax A	Vmax V	Pmax mW	Fill Factor	Efficiency	R at Voc	R at Isc	Power W	RShunt ohms	Cell Temp start	Cell Temp end	Exposure	Time	Date
0.08135895	0.00098092	12.7112	0.00049665	0.04295481	0.02133339	26.7313	0.2764	63.9241	87.581	0.00004202	NaN	NaN	NaN	8.359	15:28:46	06/04/2024

Vmeas	Imeas
1.2	-0.02066488
1.187	-0.02030163
1.174	-0.02006284
1.161	-0.01986709
1.148	-0.01976257
1.135	-0.01948635
1.122	-0.01934384
1.109	-0.01913766
1.096	-0.01888515
1.083	-0.01866818
1.07	-0.01835665
1.057	-0.01823628
1.044	-0.01808201
1.031	-0.01753227
1.018	-0.01716123
1.005	-0.01684484
0.992	-0.01658707
0.979	-0.01629986
0.966	-0.01616240
0.953	-0.01617206
0.94	-0.01557030
0.927	-0.01542091
0.914	-0.01503410
0.901	-0.01477156
0.888	-0.01456276
0.875	-0.01431833
0.862	-0.01397968
0.849	-0.01372688
0.836	-0.01344650
0.823	-0.01326260
0.81	-0.01299991
0.797	-0.01299005
0.784	-0.01279269
0.771	-0.01247843
0.758	-0.01223008
0.745	-0.01194996
0.732	-0.01165651
0.719	-0.01141654
0.706	-0.01115781
0.693	-0.01089865
0.68	-0.01065193
0.667	-0.01038161
0.654	-0.01011164
0.641	-0.00987826
0.628	-0.00960070
0.615	-0.00927874
0.602	-0.00901794
0.589	-0.00877815
0.576	-0.00853322
0.563	-0.00830486
0.55	-0.00805255
0.537	-0.00778657
0.524	-0.00753258
0.511	-0.00728238
0.498	-0.00702346
0.485	-0.00677266
0.472	-0.00650073
0.459	-0.00627819
0.446	-0.00602501
0.433	-0.00580856
0.42	-0.00555684
0.407	-0.00532424
0.394	-0.00506675
0.381	-0.00484440
0.368	-0.00460265
0.355	-0.00435523
0.342	-0.00411947
0.329	-0.00388547
0.316	-0.00367718
0.303	-0.00345992
0.29	-0.00323178
0.277	-0.00303056
0.264	-0.00281139
0.251	-0.00260134
0.238	-0.00239447
0.225	-0.00216861
0.212	-0.00195523
0.199	-0.00174811
0.186	-0.00154994
0.173	-0.00135210
0.16	-0.00116013
0.147	-0.00094934
0.134	-0.00076735
0.121	-0.00057514
0.108	-0.00039051
0.09500000	-0.00021061
0.08200000	-0.00001003
0.06900000	0.00019334
0.05600000	0.00034582
0.04300000	0.00049612
0.03000000	0.00064742
0.01700000	0.00079212
0.00400000	0.00093525
-0.00900000	0.00108368
-0.02200000	0.00120545
-0.03500000	0.00132001
-0.04800000	0.00143081
-0.06100000	0.00153849
-0.07400000	0.00163214
-0.08700000	0.00172359
-0.1	0.00181459