File: Data/IV_data/2024-06-04-A3-1_A3-6/A3-5-B_ITO+SnO2+PVSK+C6Br+Spiro+Carbon (Air quench) 2024-06-04 15-25-52.txt
Device Id	Operator	Recipe
A3-5-B_ITO+SnO2+PVSK+C6Br+Spiro+Carbon (Antisolvent)	Unknown	Jacob PVSKT _ 0.077cm^2 (nature recipe).IV

Sample Area	Irradiance	Pre sweep delay	Bias Direction	Max Reverse Bias	Max Forward Bias	Num Sweep Points	Dwell Time	Current Limit	PVIV 10A I-AMP	Average	Dark Current	Rshunt V-Lo	Rshunt V-Hi
0.077170	1.0000	0.5000	0	-0.1000	1.2000	101	10	130	0	1	0	-0.6000	-0.1000

Voc V	Isc A	Jsc mA/cm2	Imax A	Vmax V	Pmax mW	Fill Factor	Efficiency	R at Voc	R at Isc	Power W	RShunt ohms	Cell Temp start	Cell Temp end	Exposure	Time	Date
0.214126	0.00109143	14.1431	0.00055496	0.106729	0.05923069	25.3445	0.7675	189.796	200.484	0.00011793	NaN	NaN	NaN	8.359	15:25:52	06/04/2024

Vmeas	Imeas
1.2	-0.00548840
1.187	-0.00530037
1.174	-0.00510100
1.161	-0.00511922
1.148	-0.00499313
1.135	-0.00488566
1.122	-0.00487903
1.109	-0.00466680
1.096	-0.00476084
1.083	-0.00468596
1.07	-0.00459609
1.057	-0.00452116
1.044	-0.00450493
1.031	-0.00453099
1.018	-0.00481348
1.005	-0.00475271
0.992	-0.00469101
0.979	-0.00459983
0.966	-0.00451167
0.953	-0.00441446
0.94	-0.00432798
0.927	-0.00421064
0.914	-0.00412885
0.901	-0.00405331
0.888	-0.00396818
0.875	-0.00388564
0.862	-0.00380021
0.849	-0.00371330
0.836	-0.00362912
0.823	-0.00354499
0.81	-0.00346475
0.797	-0.00337443
0.784	-0.00329778
0.771	-0.00320955
0.758	-0.00311892
0.745	-0.00303506
0.732	-0.00296458
0.719	-0.00286809
0.706	-0.00278756
0.693	-0.00271549
0.68	-0.00263162
0.667	-0.00253617
0.654	-0.00246208
0.641	-0.00239153
0.628	-0.00231904
0.615	-0.00224370
0.602	-0.00216343
0.589	-0.00208571
0.576	-0.00201160
0.563	-0.00194089
0.55	-0.00186035
0.537	-0.00176572
0.524	-0.00170441
0.511	-0.00163133
0.498	-0.00155178
0.485	-0.00147299
0.472	-0.00139558
0.459	-0.00132179
0.446	-0.00125524
0.433	-0.00118148
0.42	-0.00110948
0.407	-0.00103801
0.394	-0.00097010
0.381	-0.00089601
0.368	-0.00082308
0.355	-0.00075132
0.342	-0.00068010
0.329	-0.00060893
0.316	-0.00054142
0.303	-0.00047051
0.29	-0.00040229
0.277	-0.00033408
0.264	-0.00026253
0.251	-0.00019405
0.238	-0.00012606
0.225	-0.00005733
0.212	0.00001128
0.199	0.00007966
0.186	0.00015010
0.173	0.00021769
0.16	0.00028300
0.147	0.00034952
0.134	0.00041651
0.121	0.00048123
0.108	0.00054835
0.09500000	0.00061393
0.08200000	0.00067913
0.06900000	0.00074552
0.05600000	0.00081039
0.04300000	0.00087460
0.03000000	0.00094093
0.01700000	0.00100597
0.00400000	0.00107147
-0.00900000	0.00113632
-0.02200000	0.00119965
-0.03500000	0.00126406
-0.04800000	0.00132807
-0.06100000	0.00139167
-0.07400000	0.00145529
-0.08700000	0.00151919
-0.1	0.00158253