File: Data/IV_data/2024-06-04-A3-1_A3-6/A3-5-A_ITO+SnO2+PVSK+C6Br+Spiro+Carbon (Air quench) 2024-06-04 15-25-28.txt
Device Id	Operator	Recipe
A3-5-A_ITO+SnO2+PVSK+C6Br+Spiro+Carbon (Antisolvent)	Unknown	Jacob PVSKT _ 0.077cm^2 (nature recipe).IV

Sample Area	Irradiance	Pre sweep delay	Bias Direction	Max Reverse Bias	Max Forward Bias	Num Sweep Points	Dwell Time	Current Limit	PVIV 10A I-AMP	Average	Dark Current	Rshunt V-Lo	Rshunt V-Hi
0.077170	1.0000	0.5000	0	-0.1000	1.2000	101	10	130	0	1	0	-0.6000	-0.1000

Voc V	Isc A	Jsc mA/cm2	Imax A	Vmax V	Pmax mW	Fill Factor	Efficiency	R at Voc	R at Isc	Power W	RShunt ohms	Cell Temp start	Cell Temp end	Exposure	Time	Date
0.124172	0.00089326	11.5752	0.00045275	0.06176368	0.02796334	25.2108	0.3624	135.114	144.698	0.00005629	NaN	NaN	NaN	8.359	15:25:28	06/04/2024

Vmeas	Imeas
1.2	-0.00938490
1.187	-0.00927855
1.174	-0.00895130
1.161	-0.00868026
1.148	-0.00878489
1.135	-0.00890777
1.122	-0.00883131
1.109	-0.00867008
1.096	-0.00830623
1.083	-0.00820178
1.07	-0.00811395
1.057	-0.00799631
1.044	-0.00785876
1.031	-0.00777580
1.018	-0.00758367
1.005	-0.00742030
0.992	-0.00725995
0.979	-0.00706463
0.966	-0.00697050
0.953	-0.00682732
0.94	-0.00672023
0.927	-0.00666728
0.914	-0.00655187
0.901	-0.00643984
0.888	-0.00632966
0.875	-0.00621580
0.862	-0.00609178
0.849	-0.00593005
0.836	-0.00581205
0.823	-0.00568450
0.81	-0.00556226
0.797	-0.00541512
0.784	-0.00529250
0.771	-0.00538982
0.758	-0.00506964
0.745	-0.00495473
0.732	-0.00484466
0.719	-0.00472106
0.706	-0.00478096
0.693	-0.00468119
0.68	-0.00438870
0.667	-0.00427154
0.654	-0.00415485
0.641	-0.00404600
0.628	-0.00393493
0.615	-0.00382880
0.602	-0.00372418
0.589	-0.00362080
0.576	-0.00350749
0.563	-0.00354740
0.55	-0.00339901
0.537	-0.00330534
0.524	-0.00310585
0.511	-0.00299892
0.498	-0.00299930
0.485	-0.00288488
0.472	-0.00277487
0.459	-0.00266704
0.446	-0.00255006
0.433	-0.00236835
0.42	-0.00226121
0.407	-0.00214016
0.394	-0.00204073
0.381	-0.00194182
0.368	-0.00183799
0.355	-0.00173423
0.342	-0.00162270
0.329	-0.00152426
0.316	-0.00142840
0.303	-0.00132833
0.29	-0.00122533
0.277	-0.00113589
0.264	-0.00104053
0.251	-0.00094614
0.238	-0.00085132
0.225	-0.00075454
0.212	-0.00065674
0.199	-0.00055673
0.186	-0.00045952
0.173	-0.00036201
0.16	-0.00026448
0.147	-0.00016841
0.134	-0.00007274
0.121	0.00002348
0.108	0.00012315
0.09500000	0.00021760
0.08200000	0.00031097
0.06900000	0.00040054
0.05600000	0.00049553
0.04300000	0.00059659
0.03000000	0.00068898
0.01700000	0.00077850
0.00400000	0.00086562
-0.00900000	0.00095546
-0.02200000	0.00104515
-0.03500000	0.00113023
-0.04800000	0.00122247
-0.06100000	0.00131358
-0.07400000	0.00140398
-0.08700000	0.00149494
-0.1	0.00158287