File: Data/IV_data/2024-06-04-A3-1_A3-6/A3-5-D_ITO+SnO2+PVSK+C6Br+Spiro+Carbon (Air quench) 2024-06-04 15-28-24.txt
Device Id	Operator	Recipe
A3-5-D_ITO+SnO2+PVSK+C6Br+Spiro+Carbon (Antisolvent)	Unknown	Jacob PVSKT _ 0.077cm^2 (nature recipe).IV

Sample Area	Irradiance	Pre sweep delay	Bias Direction	Max Reverse Bias	Max Forward Bias	Num Sweep Points	Dwell Time	Current Limit	PVIV 10A I-AMP	Average	Dark Current	Rshunt V-Lo	Rshunt V-Hi
0.077170	1.0000	0.5000	0	-0.1000	1.2000	101	10	130	0	1	0	-0.6000	-0.1000

Voc V	Isc A	Jsc mA/cm2	Imax A	Vmax V	Pmax mW	Fill Factor	Efficiency	R at Voc	R at Isc	Power W	RShunt ohms	Cell Temp start	Cell Temp end	Exposure	Time	Date
0.192204	0.00123046	15.9448	0.00062225	0.09495353	0.05908486	24.9831	0.7656	191.858	160.531	0.00011762	NaN	NaN	NaN	8.344	15:28:24	06/04/2024

Vmeas	Imeas
1.2	-0.00923461
1.187	-0.00888673
1.174	-0.00863109
1.161	-0.00837076
1.148	-0.00827828
1.135	-0.00828770
1.122	-0.00798889
1.109	-0.00797514
1.096	-0.00786435
1.083	-0.00779045
1.07	-0.00748524
1.057	-0.00742837
1.044	-0.00712797
1.031	-0.00700527
1.018	-0.00685461
1.005	-0.00668400
0.992	-0.00655571
0.979	-0.00642457
0.966	-0.00633634
0.953	-0.00625394
0.94	-0.00612187
0.927	-0.00588711
0.914	-0.00589195
0.901	-0.00576519
0.888	-0.00564078
0.875	-0.00548379
0.862	-0.00535115
0.849	-0.00522365
0.836	-0.00502532
0.823	-0.00492204
0.81	-0.00479325
0.797	-0.00467741
0.784	-0.00455736
0.771	-0.00445652
0.758	-0.00432182
0.745	-0.00419473
0.732	-0.00403678
0.719	-0.00393182
0.706	-0.00384465
0.693	-0.00466320
0.68	-0.00463650
0.667	-0.00453239
0.654	-0.00431667
0.641	-0.00328500
0.628	-0.00317567
0.615	-0.00307353
0.602	-0.00296255
0.589	-0.00285382
0.576	-0.00276424
0.563	-0.00265002
0.55	-0.00254730
0.537	-0.00245747
0.524	-0.00236635
0.511	-0.00227925
0.498	-0.00219223
0.485	-0.00208711
0.472	-0.00198360
0.459	-0.00187840
0.446	-0.00177479
0.433	-0.00168667
0.42	-0.00158133
0.407	-0.00149159
0.394	-0.00138634
0.381	-0.00128898
0.368	-0.00119425
0.355	-0.00111081
0.342	-0.00101536
0.329	-0.00092900
0.316	-0.00083789
0.303	-0.00073841
0.29	-0.00064430
0.277	-0.00055554
0.264	-0.00046598
0.251	-0.00037643
0.238	-0.00029006
0.225	-0.00020343
0.212	-0.00011488
0.199	-0.00002787
0.186	0.00002044
0.173	0.00010444
0.16	0.00019164
0.147	0.00027964
0.134	0.00036603
0.121	0.00045142
0.108	0.00053694
0.09500000	0.00062195
0.08200000	0.00070776
0.06900000	0.00079204
0.05600000	0.00087626
0.04300000	0.00096053
0.03000000	0.00104207
0.01700000	0.00112478
0.00400000	0.00120554
-0.00900000	0.00128652
-0.02200000	0.00136516
-0.03500000	0.00144389
-0.04800000	0.00152152
-0.06100000	0.00159673
-0.07400000	0.00166994
-0.08700000	0.00174347
-0.1	0.00181466