File: Data/IV_data/2024-06-04-A3-1_A3-6/A3-5-C_ITO+SnO2+PVSK+C6Br+Spiro+Carbon (Air quench) 2024-06-04 15-26-14.txt
Device Id	Operator	Recipe
A3-5-C_ITO+SnO2+PVSK+C6Br+Spiro+Carbon (Antisolvent)	Unknown	Jacob PVSKT _ 0.077cm^2 (nature recipe).IV

Sample Area	Irradiance	Pre sweep delay	Bias Direction	Max Reverse Bias	Max Forward Bias	Num Sweep Points	Dwell Time	Current Limit	PVIV 10A I-AMP	Average	Dark Current	Rshunt V-Lo	Rshunt V-Hi
0.077170	1.0000	0.5000	0	-0.1000	1.2000	101	10	130	0	1	0	-0.6000	-0.1000

Voc V	Isc A	Jsc mA/cm2	Imax A	Vmax V	Pmax mW	Fill Factor	Efficiency	R at Voc	R at Isc	Power W	RShunt ohms	Cell Temp start	Cell Temp end	Exposure	Time	Date
0.18799	0.00107484	13.9282	0.00058153	0.09482793	0.05514575	27.2919	0.7146	153.599	211.399	0.00010641	NaN	NaN	NaN	8.375	15:26:14	06/04/2024

Vmeas	Imeas
1.2	-0.00416587
1.187	-0.00366890
1.174	-0.00391404
1.161	-0.00423685
1.148	-0.00439650
1.135	-0.00329722
1.122	-0.00320083
1.109	-0.00309273
1.096	-0.00538346
1.083	-0.00532493
1.07	-0.00559264
1.057	-0.00550239
1.044	-0.00502770
1.031	-0.00559570
1.018	-0.00535785
1.005	-0.00486641
0.992	-0.00514761
0.979	-0.00501211
0.966	-0.00448295
0.953	-0.00439707
0.94	-0.00464042
0.927	-0.00470930
0.914	-0.00493651
0.901	-0.00490304
0.888	-0.00485624
0.875	-0.00457620
0.862	-0.00355858
0.849	-0.00400009
0.836	-0.00455396
0.823	-0.00460830
0.81	-0.00456692
0.797	-0.00447940
0.784	-0.00435390
0.771	-0.00421654
0.758	-0.00427626
0.745	-0.00413500
0.732	-0.00386343
0.719	-0.00393512
0.706	-0.00385913
0.693	-0.00372069
0.68	-0.00308835
0.667	-0.00274751
0.654	-0.00303385
0.641	-0.00296981
0.628	-0.00297269
0.615	-0.00284641
0.602	-0.00272876
0.589	-0.00287546
0.576	-0.00278264
0.563	-0.00268418
0.55	-0.00256914
0.537	-0.00248119
0.524	-0.00238114
0.511	-0.00225792
0.498	-0.00217951
0.485	-0.00207465
0.472	-0.00197984
0.459	-0.00186061
0.446	-0.00180196
0.433	-0.00165851
0.42	-0.00159745
0.407	-0.00147073
0.394	-0.00140426
0.381	-0.00126599
0.368	-0.00118343
0.355	-0.00110438
0.342	-0.00100198
0.329	-0.00090112
0.316	-0.00083638
0.303	-0.00074282
0.29	-0.00064022
0.277	-0.00056713
0.264	-0.00049364
0.251	-0.00040205
0.238	-0.00033302
0.225	-0.00024437
0.212	-0.00016584
0.199	-0.00007579
0.186	0.00002297
0.173	0.00009169
0.16	0.00018657
0.147	0.00027242
0.134	0.00034741
0.121	0.00042309
0.108	0.00049683
0.09500000	0.00058048
0.08200000	0.00064804
0.06900000	0.00071737
0.05600000	0.00078768
0.04300000	0.00085541
0.03000000	0.00092069
0.01700000	0.00098754
0.00400000	0.00105591
-0.00900000	0.00111741
-0.02200000	0.00117677
-0.03500000	0.00123557
-0.04800000	0.00129144
-0.06100000	0.00134636
-0.07400000	0.00139947
-0.08700000	0.00145119
-0.1	0.00150110