File: Data/IV_data/2024-06-04-A3-1_A3-6/A3-6-B_ITO+SnO2+PVSK+C6Br+Spiro+Carbon (Air quench) 2024-06-04 15-35-21.txt
Device Id	Operator	Recipe
A3-6-B_ITO+SnO2+PVSK+C6Br+Spiro+Carbon (Air quench)	Unknown	Jacob PVSKT _ 0.077cm^2 (nature recipe).IV

Sample Area	Irradiance	Pre sweep delay	Bias Direction	Max Reverse Bias	Max Forward Bias	Num Sweep Points	Dwell Time	Current Limit	PVIV 10A I-AMP	Average	Dark Current	Rshunt V-Lo	Rshunt V-Hi
0.077170	1.0000	0.5000	0	-0.1000	1.2000	101	10	130	0	1	0	-0.6000	-0.1000

Voc V	Isc A	Jsc mA/cm2	Imax A	Vmax V	Pmax mW	Fill Factor	Efficiency	R at Voc	R at Isc	Power W	RShunt ohms	Cell Temp start	Cell Temp end	Exposure	Time	Date
0.157261	0.00113392	14.6939	0.00057537	0.07867507	0.04526764	25.3853	0.5866	139.607	150.079	0.00009014	NaN	NaN	NaN	8.359	15:35:21	06/04/2024

Vmeas	Imeas
1.2	-0.00535847
1.187	-0.00524836
1.174	-0.00511145
1.161	-0.00487546
1.148	-0.00480550
1.135	-0.00862237
1.122	-0.00994593
1.109	-0.00946476
1.096	-0.00948211
1.083	-0.00909050
1.07	-0.00896882
1.057	-0.00846378
1.044	-0.00856964
1.031	-0.00808365
1.018	-0.00874566
1.005	-0.00802303
0.992	-0.00812005
0.979	-0.00772121
0.966	-0.00719542
0.953	-0.00708575
0.94	-0.00723864
0.927	-0.00705956
0.914	-0.00695186
0.901	-0.00657549
0.888	-0.00656806
0.875	-0.00645715
0.862	-0.00620010
0.849	-0.00597298
0.836	-0.00575063
0.823	-0.00559845
0.81	-0.00529300
0.797	-0.00521374
0.784	-0.00509303
0.771	-0.00501925
0.758	-0.00497042
0.745	-0.00480010
0.732	-0.00465492
0.719	-0.00453234
0.706	-0.00437306
0.693	-0.00423492
0.68	-0.00406999
0.667	-0.00495235
0.654	-0.00475003
0.641	-0.00458263
0.628	-0.00433749
0.615	-0.00420882
0.602	-0.00402290
0.589	-0.00391177
0.576	-0.00386926
0.563	-0.00363071
0.55	-0.00356055
0.537	-0.00340618
0.524	-0.00324209
0.511	-0.00304573
0.498	-0.00300676
0.485	-0.00284974
0.472	-0.00259428
0.459	-0.00252939
0.446	-0.00240127
0.433	-0.00231169
0.42	-0.00223071
0.407	-0.00207244
0.394	-0.00192285
0.381	-0.00181025
0.368	-0.00170013
0.355	-0.00165972
0.342	-0.00152114
0.329	-0.00142301
0.316	-0.00129423
0.303	-0.00119389
0.29	-0.00106102
0.277	-0.00094133
0.264	-0.00083824
0.251	-0.00073967
0.238	-0.00063106
0.225	-0.00052708
0.212	-0.00042575
0.199	-0.00032519
0.186	-0.00022358
0.173	-0.00012414
0.16	-0.00001962
0.147	0.00007350
0.134	0.00017548
0.121	0.00027134
0.108	0.00036441
0.09500000	0.00045674
0.08200000	0.00055108
0.06900000	0.00064616
0.05600000	0.00073794
0.04300000	0.00083266
0.03000000	0.00092187
0.01700000	0.00101210
0.00400000	0.00110727
-0.00900000	0.00119389
-0.02200000	0.00128077
-0.03500000	0.00136591
-0.04800000	0.00145136
-0.06100000	0.00153538
-0.07400000	0.00161802
-0.08700000	0.00169919
-0.1	0.00177796