File: Data/IV_data/2024-06-04-A3-1_A3-6/A3-6-C_ITO+SnO2+PVSK+C6Br+Spiro+Carbon (Air quench) 2024-06-04 15-35-50.txt
Device Id	Operator	Recipe
A3-6-C_ITO+SnO2+PVSK+C6Br+Spiro+Carbon (Air quench)	Unknown	Jacob PVSKT _ 0.077cm^2 (nature recipe).IV

Sample Area	Irradiance	Pre sweep delay	Bias Direction	Max Reverse Bias	Max Forward Bias	Num Sweep Points	Dwell Time	Current Limit	PVIV 10A I-AMP	Average	Dark Current	Rshunt V-Lo	Rshunt V-Hi
0.077170	1.0000	0.5000	0	-0.1000	1.2000	101	10	130	0	1	0	-0.6000	-0.1000

Voc V	Isc A	Jsc mA/cm2	Imax A	Vmax V	Pmax mW	Fill Factor	Efficiency	R at Voc	R at Isc	Power W	RShunt ohms	Cell Temp start	Cell Temp end	Exposure	Time	Date
0.05800220	0.00072035	9.3346	0.00000000	NaN	NaN	NaN	NaN	70.8595	85.058	0.00002131	NaN	NaN	NaN	8.344	15:35:50	06/04/2024

Vmeas	Imeas
1.2	-0.01181219
1.187	-0.01455468
1.174	-0.01827222
1.161	-0.01769349
1.148	-0.01730187
1.135	-0.01660027
1.122	-0.01638578
1.109	-0.01649300
1.096	-0.01527176
1.083	-0.01482668
1.07	-0.01445862
1.057	-0.01469397
1.044	-0.01433208
1.031	-0.01442288
1.018	-0.01436088
1.005	-0.01414216
0.992	-0.01393687
0.979	-0.01383851
0.966	-0.01347040
0.953	-0.01331186
0.94	-0.01302547
0.927	-0.01289044
0.914	-0.01253109
0.901	-0.01248210
0.888	-0.01237716
0.875	-0.01201661
0.862	-0.01199591
0.849	-0.01209627
0.836	-0.01149750
0.823	-0.01133960
0.81	-0.01118789
0.797	-0.01085245
0.784	-0.01061810
0.771	-0.01036385
0.758	-0.01021599
0.745	-0.00997667
0.732	-0.00978396
0.719	-0.00955870
0.706	-0.00931768
0.693	-0.00913904
0.68	-0.00894566
0.667	-0.00872981
0.654	-0.00847029
0.641	-0.00826971
0.628	-0.00810422
0.615	-0.00789994
0.602	-0.00767140
0.589	-0.00747858
0.576	-0.00722728
0.563	-0.00708900
0.55	-0.00684576
0.537	-0.00664830
0.524	-0.00642536
0.511	-0.00622977
0.498	-0.00601204
0.485	-0.00583149
0.472	-0.00562108
0.459	-0.00541361
0.446	-0.00525123
0.433	-0.00507381
0.42	-0.00488093
0.407	-0.00469244
0.394	-0.00450591
0.381	-0.00432975
0.368	-0.00414963
0.355	-0.00391454
0.342	-0.00375712
0.329	-0.00359434
0.316	-0.00341200
0.303	-0.00323724
0.29	-0.00306350
0.277	-0.00288332
0.264	-0.00270164
0.251	-0.00252979
0.238	-0.00235285
0.225	-0.00217032
0.212	-0.00200912
0.199	-0.00184096
0.186	-0.00167327
0.173	-0.00150032
0.16	-0.00132989
0.147	-0.00116316
0.134	-0.00099242
0.121	-0.00082406
0.108	-0.00065048
0.09500000	-0.00048657
0.08200000	-0.00032139
0.06900000	-0.00015521
0.05600000	0.00002826
0.04300000	0.00020265
0.03000000	0.00035657
0.01700000	0.00051242
0.00400000	0.00067332
-0.00900000	0.00082616
-0.02200000	0.00097532
-0.03500000	0.00110455
-0.04800000	0.00126919
-0.06100000	0.00142549
-0.07400000	0.00158015
-0.08700000	0.00173349
-0.1	0.00188701