File: Data/IV_data/2024-06-04-A3-1_A3-6/A3-6-A_ITO+SnO2+PVSK+C6Br+Spiro+Carbon (Air quench) 2024-06-04 15-34-41.txt
Device Id	Operator	Recipe
A3-6-A_ITO+SnO2+PVSK+C6Br+Spiro+Carbon (Air quench)	Unknown	Jacob PVSKT _ 0.077cm^2 (nature recipe).IV

Sample Area	Irradiance	Pre sweep delay	Bias Direction	Max Reverse Bias	Max Forward Bias	Num Sweep Points	Dwell Time	Current Limit	PVIV 10A I-AMP	Average	Dark Current	Rshunt V-Lo	Rshunt V-Hi
0.077170	1.0000	0.5000	0	-0.1000	1.2000	101	10	130	0	1	0	-0.6000	-0.1000

Voc V	Isc A	Jsc mA/cm2	Imax A	Vmax V	Pmax mW	Fill Factor	Efficiency	R at Voc	R at Isc	Power W	RShunt ohms	Cell Temp start	Cell Temp end	Exposure	Time	Date
0.146603	0.00098669	12.786	0.00049854	0.07376162	0.03677309	25.4217	0.4765	134.59	152.387	0.00007338	NaN	NaN	NaN	8.562	15:34:41	06/04/2024

Vmeas	Imeas
1.2	-0.00401431
1.187	-0.00913987
1.174	-0.00891473
1.161	-0.00840674
1.148	-0.00851141
1.135	-0.00834614
1.122	-0.00812171
1.109	-0.00883555
1.096	-0.00881830
1.083	-0.00859828
1.07	-0.00772508
1.057	-0.00804709
1.044	-0.00811210
1.031	-0.00770120
1.018	-0.00668990
1.005	-0.00692316
0.992	-0.00651784
0.979	-0.00627677
0.966	-0.00326861
0.953	-0.00629629
0.94	-0.00627345
0.927	-0.00621990
0.914	-0.00576963
0.901	-0.00553580
0.888	-0.00478864
0.875	-0.00515350
0.862	-0.00447584
0.849	-0.00469553
0.836	-0.00439196
0.823	-0.00457104
0.81	-0.00523039
0.797	-0.00481591
0.784	-0.00517304
0.771	-0.00517800
0.758	-0.00476474
0.745	-0.00502844
0.732	-0.00495202
0.719	-0.00485128
0.706	-0.00470996
0.693	-0.00461166
0.68	-0.00447545
0.667	-0.00431300
0.654	-0.00420034
0.641	-0.00409457
0.628	-0.00394947
0.615	-0.00384934
0.602	-0.00372630
0.589	-0.00360786
0.576	-0.00350169
0.563	-0.00327350
0.55	-0.00311899
0.537	-0.00300707
0.524	-0.00292592
0.511	-0.00285102
0.498	-0.00266370
0.485	-0.00257882
0.472	-0.00245184
0.459	-0.00233427
0.446	-0.00227158
0.433	-0.00216836
0.42	-0.00203688
0.407	-0.00190596
0.394	-0.00182747
0.381	-0.00171269
0.368	-0.00158897
0.355	-0.00147084
0.342	-0.00139899
0.329	-0.00129365
0.316	-0.00121073
0.303	-0.00112019
0.29	-0.00101581
0.277	-0.00092570
0.264	-0.00083440
0.251	-0.00074457
0.238	-0.00064996
0.225	-0.00055722
0.212	-0.00046382
0.199	-0.00037146
0.186	-0.00028062
0.173	-0.00019133
0.16	-0.00010029
0.147	-0.00000142
0.134	0.00009286
0.121	0.00018235
0.108	0.00027090
0.09500000	0.00035821
0.08200000	0.00044315
0.06900000	0.00053076
0.05600000	0.00061814
0.04300000	0.00070459
0.03000000	0.00078960
0.01700000	0.00087519
0.00400000	0.00096044
-0.00900000	0.00104575
-0.02200000	0.00107262
-0.03500000	0.00117232
-0.04800000	0.00127046
-0.06100000	0.00136873
-0.07400000	0.00146386
-0.08700000	0.00155971
-0.1	0.00165358