File: Data/IV_data/2024-05-15-A1-1_A1-6/A1-3-E_ITO+SnO2+PVSK+C6Br+Spiro+Carbon (Antisolvent) 2024-05-15 14-34-35.txt
Device Id	Operator	Recipe
A1-1-E_ITO+SnO2+PVSK+C6Br+Spiro+Carbon (Antisolvent)	Unknown	Jacob PVSKT _ 0.077cm^2 (nature recipe).IV

Sample Area	Irradiance	Pre sweep delay	Bias Direction	Max Reverse Bias	Max Forward Bias	Num Sweep Points	Dwell Time	Current Limit	PVIV 10A I-AMP	Average	Dark Current	Rshunt V-Lo	Rshunt V-Hi
0.077170	1.0000	0.5000	1	-0.1000	1.2000	101	10	130	0	1	0	-0.6000	-0.1000

Voc V	Isc A	Jsc mA/cm2	Imax A	Vmax V	Pmax mW	Fill Factor	Efficiency	R at Voc	R at Isc	Power W	RShunt ohms	Cell Temp start	Cell Temp end	Exposure	Time	Date
1.05335	0.00168674	21.8575	0.00114557	0.741246	0.849152	47.7930	11.0037	140.922	3484.394	0.00133716	NaN	NaN	NaN	8.422	14:34:35	05/15/2024

Vmeas	Imeas
-0.1	0.00170521
-0.08700000	0.00170265
-0.07400000	0.00170020
-0.06100000	0.00169795
-0.04800000	0.00169570
-0.03500000	0.00169346
-0.02200000	0.00169184
-0.00900000	0.00168977
0.00400000	0.00168856
0.01700000	0.00168493
0.03000000	0.00168227
0.04300000	0.00167979
0.05600000	0.00167703
0.06900000	0.00167452
0.08200000	0.00167137
0.09500000	0.00166793
0.108	0.00166405
0.121	0.00165994
0.134	0.00165585
0.147	0.00165132
0.16	0.00164636
0.173	0.00164117
0.186	0.00163653
0.199	0.00163021
0.212	0.00162462
0.225	0.00161865
0.238	0.00161235
0.251	0.00160577
0.264	0.00159921
0.277	0.00159269
0.29	0.00158477
0.303	0.00157754
0.316	0.00156899
0.329	0.00156036
0.342	0.00155173
0.355	0.00154413
0.368	0.00153359
0.381	0.00152508
0.394	0.00151585
0.407	0.00150530
0.42	0.00149482
0.433	0.00148556
0.446	0.00147483
0.459	0.00146391
0.472	0.00145187
0.485	0.00144104
0.498	0.00142871
0.511	0.00141660
0.524	0.00140449
0.537	0.00139192
0.55	0.00137962
0.563	0.00136582
0.576	0.00135331
0.589	0.00134085
0.602	0.00132558
0.615	0.00131031
0.628	0.00129446
0.641	0.00128038
0.654	0.00126507
0.667	0.00124934
0.68	0.00123331
0.693	0.00121639
0.706	0.00119725
0.719	0.00117985
0.732	0.00116006
0.745	0.00114137
0.758	0.00111867
0.771	0.00109731
0.784	0.00107451
0.797	0.00105007
0.81	0.00102565
0.823	0.00101448
0.836	0.00098265
0.849	0.00095110
0.862	0.00091733
0.875	0.00088293
0.888	0.00084413
0.901	0.00080326
0.914	0.00075753
0.927	0.00070874
0.94	0.00065682
0.953	0.00060136
0.966	0.00054221
0.979	0.00047586
0.992	0.00040338
1.005	0.00032538
1.018	0.00024462
1.031	0.00015342
1.044	0.00008180
1.057	-0.00002381
1.07	-0.00007898
1.083	-0.00020497
1.096	-0.00033565
1.109	-0.00047129
1.122	-0.00061255
1.135	-0.00075701
1.148	-0.00090788
1.161	-0.00104161
1.174	-0.00120692
1.187	-0.00137215
1.2	-0.00154367