File: Data/IV_data/2024-05-15-A1-1_A1-6/A1-3-A_ITO+SnO2+PVSK+C6Br+Spiro+Carbon (Antisolvent) 2024-05-15 14-28-13.txt
Device Id	Operator	Recipe
A1-1-A_ITO+SnO2+PVSK+C6Br+Spiro+Carbon (Antisolvent)	Unknown	Jacob PVSKT _ 0.077cm^2 (nature recipe).IV

Sample Area	Irradiance	Pre sweep delay	Bias Direction	Max Reverse Bias	Max Forward Bias	Num Sweep Points	Dwell Time	Current Limit	PVIV 10A I-AMP	Average	Dark Current	Rshunt V-Lo	Rshunt V-Hi
0.077170	1.0000	0.5000	1	-0.1000	1.2000	101	10	130	0	1	0	-0.6000	-0.1000

Voc V	Isc A	Jsc mA/cm2	Imax A	Vmax V	Pmax mW	Fill Factor	Efficiency	R at Voc	R at Isc	Power W	RShunt ohms	Cell Temp start	Cell Temp end	Exposure	Time	Date
1.14305	0.00163466	21.1826	0.00137101	0.857127	1.17513	62.8917	15.2278	119.943	17432.680	0.00158971	NaN	NaN	NaN	8.422	14:28:13	05/15/2024

Vmeas	Imeas
-0.1	0.00163781
-0.08700000	0.00163746
-0.07400000	0.00163749
-0.06100000	0.00163676
-0.04800000	0.00163656
-0.03500000	0.00163563
-0.02200000	0.00163510
-0.00900000	0.00163492
0.00400000	0.00163566
0.01700000	0.00163443
0.03000000	0.00163346
0.04300000	0.00163313
0.05600000	0.00163238
0.06900000	0.00163204
0.08200000	0.00163127
0.09500000	0.00163046
0.108	0.00162936
0.121	0.00162917
0.134	0.00162873
0.147	0.00162787
0.16	0.00162667
0.173	0.00162580
0.186	0.00162558
0.199	0.00162479
0.212	0.00162335
0.225	0.00162222
0.238	0.00162162
0.251	0.00162060
0.264	0.00161960
0.277	0.00161827
0.29	0.00161705
0.303	0.00161558
0.316	0.00161506
0.329	0.00161358
0.342	0.00161137
0.355	0.00160993
0.368	0.00160820
0.381	0.00160618
0.394	0.00160477
0.407	0.00160256
0.42	0.00160059
0.433	0.00159812
0.446	0.00159602
0.459	0.00159342
0.472	0.00159059
0.485	0.00158751
0.498	0.00158474
0.511	0.00158262
0.524	0.00157900
0.537	0.00157584
0.55	0.00157164
0.563	0.00156760
0.576	0.00156343
0.589	0.00155928
0.602	0.00155473
0.615	0.00154987
0.628	0.00154358
0.641	0.00153886
0.654	0.00153303
0.667	0.00152705
0.68	0.00108530
0.693	0.00151201
0.706	0.00150495
0.719	0.00149731
0.732	0.00148966
0.745	0.00149682
0.758	0.00148470
0.771	0.00147327
0.784	0.00146048
0.797	0.00144742
0.81	0.00143338
0.823	0.00141804
0.836	0.00140184
0.849	0.00138352
0.862	0.00136334
0.875	0.00134150
0.888	0.00131721
0.901	0.00129006
0.914	0.00126004
0.927	0.00122673
0.94	0.00118963
0.953	0.00114819
0.966	0.00110208
0.979	0.00105173
0.992	0.00100305
1.005	0.00094120
1.018	0.00087478
1.031	0.00080319
1.044	0.00072677
1.057	0.00064542
1.07	0.00055944
1.083	0.00046938
1.096	0.00037508
1.109	0.00027689
1.122	0.00017528
1.135	0.00007387
1.148	-0.00003504
1.161	-0.00014860
1.174	-0.00026501
1.187	-0.00038433
1.2	-0.00050658