File: Data/IV_data/2024-05-15-A1-1_A1-6/A1-3-C_ITO+SnO2+PVSK+C6Br+Spiro+Carbon (Antisolvent) 2024-05-15 14-31-10.txt
Device Id	Operator	Recipe
A1-1-C_ITO+SnO2+PVSK+C6Br+Spiro+Carbon (Antisolvent)	Unknown	Jacob PVSKT _ 0.077cm^2 (nature recipe).IV

Sample Area	Irradiance	Pre sweep delay	Bias Direction	Max Reverse Bias	Max Forward Bias	Num Sweep Points	Dwell Time	Current Limit	PVIV 10A I-AMP	Average	Dark Current	Rshunt V-Lo	Rshunt V-Hi
0.077170	1.0000	0.5000	1	-0.1000	1.2000	101	10	130	0	1	0	-0.6000	-0.1000

Voc V	Isc A	Jsc mA/cm2	Imax A	Vmax V	Pmax mW	Fill Factor	Efficiency	R at Voc	R at Isc	Power W	RShunt ohms	Cell Temp start	Cell Temp end	Exposure	Time	Date
1.13494	0.00168625	21.8512	0.00136905	0.840646	1.15088	60.1360	14.9136	124.991	13673.598	0.00160539	NaN	NaN	NaN	8.422	14:31:10	05/15/2024

Vmeas	Imeas
-0.1	0.00169104
-0.08700000	0.00169006
-0.07400000	0.00168946
-0.06100000	0.00168900
-0.04800000	0.00168833
-0.03500000	0.00168750
-0.02200000	0.00168739
-0.00900000	0.00168656
0.00400000	0.00168675
0.01700000	0.00168605
0.03000000	0.00168500
0.04300000	0.00168418
0.05600000	0.00168358
0.06900000	0.00168243
0.08200000	0.00168186
0.09500000	0.00168099
0.108	0.00168008
0.121	0.00167911
0.134	0.00167857
0.147	0.00167714
0.16	0.00167608
0.173	0.00167509
0.186	0.00167437
0.199	0.00167286
0.212	0.00167212
0.225	0.00167047
0.238	0.00166907
0.251	0.00166796
0.264	0.00166653
0.277	0.00166535
0.29	0.00166358
0.303	0.00166170
0.316	0.00165989
0.329	0.00165796
0.342	0.00165591
0.355	0.00165390
0.368	0.00165201
0.381	0.00164971
0.394	0.00164715
0.407	0.00164477
0.42	0.00164208
0.433	0.00163909
0.446	0.00163578
0.459	0.00163258
0.472	0.00162906
0.485	0.00162504
0.498	0.00162115
0.511	0.00161726
0.524	0.00161346
0.537	0.00160875
0.55	0.00160359
0.563	0.00159837
0.576	0.00159299
0.589	0.00158780
0.602	0.00158158
0.615	0.00157525
0.628	0.00156890
0.641	0.00156150
0.654	0.00155407
0.667	0.00154608
0.68	0.00153743
0.693	0.00152856
0.706	0.00151913
0.719	0.00150852
0.732	0.00149806
0.745	0.00148634
0.758	0.00147392
0.771	0.00146049
0.784	0.00144609
0.797	0.00143079
0.81	0.00141396
0.823	0.00139550
0.836	0.00137582
0.849	0.00135458
0.862	0.00133057
0.875	0.00130510
0.888	0.00127681
0.901	0.00124587
0.914	0.00121220
0.927	0.00117527
0.94	0.00113433
0.953	0.00108968
0.966	0.00104093
0.979	0.00099914
0.992	0.00093928
1.005	0.00087581
1.018	0.00080793
1.031	0.00073545
1.044	0.00065814
1.057	0.00057642
1.07	0.00049007
1.083	0.00039949
1.096	0.00030481
1.109	0.00020630
1.122	0.00010394
1.135	0.00000435
1.148	-0.00009238
1.161	-0.00020556
1.174	-0.00032471
1.187	-0.00044602
1.2	-0.00056956