File: Data/IV_data/2024-05-15-A1-1_A1-6/A1-3-D_ITO+SnO2+PVSK+C6Br+Spiro+Carbon (Antisolvent) 2024-05-15 14-33-04.txt
Device Id	Operator	Recipe
A1-1-D_ITO+SnO2+PVSK+C6Br+Spiro+Carbon (Antisolvent)	Unknown	Jacob PVSKT _ 0.077cm^2 (nature recipe).IV

Sample Area	Irradiance	Pre sweep delay	Bias Direction	Max Reverse Bias	Max Forward Bias	Num Sweep Points	Dwell Time	Current Limit	PVIV 10A I-AMP	Average	Dark Current	Rshunt V-Lo	Rshunt V-Hi
0.077170	1.0000	0.5000	1	-0.1000	1.2000	101	10	130	0	1	0	-0.6000	-0.1000

Voc V	Isc A	Jsc mA/cm2	Imax A	Vmax V	Pmax mW	Fill Factor	Efficiency	R at Voc	R at Isc	Power W	RShunt ohms	Cell Temp start	Cell Temp end	Exposure	Time	Date
1.11462	0.00172192	22.3133	0.00147776	0.837444	1.23754	64.4794	16.0366	105.059	26342.912	0.00166216	NaN	NaN	NaN	8.234	14:33:04	05/15/2024

Vmeas	Imeas
-0.1	0.00172337
-0.08700000	0.00172295
-0.07400000	0.00172338
-0.06100000	0.00172300
-0.04800000	0.00172284
-0.03500000	0.00172242
-0.02200000	0.00172257
-0.00900000	0.00172225
0.00400000	0.00172284
0.01700000	0.00172178
0.03000000	0.00172173
0.04300000	0.00172169
0.05600000	0.00172093
0.06900000	0.00172006
0.08200000	0.00171966
0.09500000	0.00171985
0.108	0.00171910
0.121	0.00171877
0.134	0.00171778
0.147	0.00171716
0.16	0.00171725
0.173	0.00171638
0.186	0.00171563
0.199	0.00171511
0.212	0.00171455
0.225	0.00171381
0.238	0.00171277
0.251	0.00171213
0.264	0.00171140
0.277	0.00171079
0.29	0.00170929
0.303	0.00170882
0.316	0.00170796
0.329	0.00170738
0.342	0.00170591
0.355	0.00170486
0.368	0.00170374
0.381	0.00170250
0.394	0.00170135
0.407	0.00170023
0.42	0.00169861
0.433	0.00169715
0.446	0.00169485
0.459	0.00169323
0.472	0.00169162
0.485	0.00169089
0.498	0.00168782
0.511	0.00168558
0.524	0.00168347
0.537	0.00168068
0.55	0.00167829
0.563	0.00167505
0.576	0.00167176
0.589	0.00166826
0.602	0.00166540
0.615	0.00166115
0.628	0.00165690
0.641	0.00165183
0.654	0.00164591
0.667	0.00164090
0.68	0.00163490
0.693	0.00162710
0.706	0.00161942
0.719	0.00161100
0.732	0.00160179
0.745	0.00159156
0.758	0.00158000
0.771	0.00156755
0.784	0.00155387
0.797	0.00153833
0.81	0.00152105
0.823	0.00150159
0.836	0.00148055
0.849	0.00145634
0.862	0.00142975
0.875	0.00140006
0.888	0.00136700
0.901	0.00133010
0.914	0.00129051
0.927	0.00124484
0.94	0.00119508
0.953	0.00114032
0.966	0.00108065
0.979	0.00101513
0.992	0.00097580
1.005	0.00089487
1.018	0.00080888
1.031	0.00071754
1.044	0.00062058
1.057	0.00051744
1.07	0.00040840
1.083	0.00029354
1.096	0.00017289
1.109	0.00006575
1.122	-0.00006959
1.135	-0.00018184
1.148	-0.00033097
1.161	-0.00048411
1.174	-0.00064137
1.187	-0.00080266
1.2	-0.00096753