File: Data/IV_data/2024-05-15-A1-1_A1-6/A1-3-B_ITO+SnO2+PVSK+C6Br+Spiro+Carbon (Antisolvent) 2024-05-15 14-29-42.txt
Device Id	Operator	Recipe
A1-1-B_ITO+SnO2+PVSK+C6Br+Spiro+Carbon (Antisolvent)	Unknown	Jacob PVSKT _ 0.077cm^2 (nature recipe).IV

Sample Area	Irradiance	Pre sweep delay	Bias Direction	Max Reverse Bias	Max Forward Bias	Num Sweep Points	Dwell Time	Current Limit	PVIV 10A I-AMP	Average	Dark Current	Rshunt V-Lo	Rshunt V-Hi
0.077170	1.0000	0.5000	1	-0.1000	1.2000	101	10	130	0	1	0	-0.6000	-0.1000

Voc V	Isc A	Jsc mA/cm2	Imax A	Vmax V	Pmax mW	Fill Factor	Efficiency	R at Voc	R at Isc	Power W	RShunt ohms	Cell Temp start	Cell Temp end	Exposure	Time	Date
1.13217	0.00165594	21.4584	0.00129260	0.81761	1.05684	56.3706	13.6950	137.817	10419.071	0.00153025	NaN	NaN	NaN	8.219	14:29:42	05/15/2024

Vmeas	Imeas
-0.1	0.00166150
-0.08700000	0.00166048
-0.07400000	0.00165979
-0.06100000	0.00165932
-0.04800000	0.00165854
-0.03500000	0.00165789
-0.02200000	0.00165760
-0.00900000	0.00165642
0.00400000	0.00165639
0.01700000	0.00165543
0.03000000	0.00165408
0.04300000	0.00165339
0.05600000	0.00165213
0.06900000	0.00165116
0.08200000	0.00165055
0.09500000	0.00164899
0.108	0.00164838
0.121	0.00164760
0.134	0.00164588
0.147	0.00164443
0.16	0.00164332
0.173	0.00164185
0.186	0.00164004
0.199	0.00163932
0.212	0.00163750
0.225	0.00163587
0.238	0.00163340
0.251	0.00163182
0.264	0.00163010
0.277	0.00162787
0.29	0.00162586
0.303	0.00162328
0.316	0.00162060
0.329	0.00161791
0.342	0.00161563
0.355	0.00161263
0.368	0.00160902
0.381	0.00160580
0.394	0.00160205
0.407	0.00159902
0.42	0.00159512
0.433	0.00159100
0.446	0.00158631
0.459	0.00158142
0.472	0.00157680
0.485	0.00157172
0.498	0.00156650
0.511	0.00156083
0.524	0.00155472
0.537	0.00154820
0.55	0.00154169
0.563	0.00153494
0.576	0.00152737
0.589	0.00151982
0.602	0.00151171
0.615	0.00150315
0.628	0.00149415
0.641	0.00148468
0.654	0.00147440
0.667	0.00146421
0.68	0.00145343
0.693	0.00144187
0.706	0.00142964
0.719	0.00141712
0.732	0.00140366
0.745	0.00138954
0.758	0.00137419
0.771	0.00135811
0.784	0.00134149
0.797	0.00132303
0.81	0.00130426
0.823	0.00128383
0.836	0.00126200
0.849	0.00123856
0.862	0.00121339
0.875	0.00118626
0.888	0.00115711
0.901	0.00112607
0.914	0.00109192
0.927	0.00105509
0.94	0.00101576
0.953	0.00098236
0.966	0.00093405
0.979	0.00088290
0.992	0.00082851
1.005	0.00077039
1.018	0.00070835
1.031	0.00064244
1.044	0.00057234
1.057	0.00049839
1.07	0.00042055
1.083	0.00033924
1.096	0.00025431
1.109	0.00016603
1.122	0.00008010
1.135	-0.00001562
1.148	-0.00010673
1.161	-0.00020871
1.174	-0.00031295
1.187	-0.00041948
1.2	-0.00052838