File: Data/IV_data/2024-05-15-A1-1_A1-6/A1-4-C_ITO+SnO2+PVSK+C6Br+Spiro+Carbon (Antisolvent) 2024-05-15 14-39-16.txt
Device Id	Operator	Recipe
A1-4-C_ITO+SnO2+PVSK+C6Br+Spiro+Carbon (Antisolvent)	Unknown	Jacob PVSKT _ 0.077cm^2 (nature recipe).IV

Sample Area	Irradiance	Pre sweep delay	Bias Direction	Max Reverse Bias	Max Forward Bias	Num Sweep Points	Dwell Time	Current Limit	PVIV 10A I-AMP	Average	Dark Current	Rshunt V-Lo	Rshunt V-Hi
0.077170	1.0000	0.5000	1	-0.1000	1.2000	101	10	130	0	1	0	-0.6000	-0.1000

Voc V	Isc A	Jsc mA/cm2	Imax A	Vmax V	Pmax mW	Fill Factor	Efficiency	R at Voc	R at Isc	Power W	RShunt ohms	Cell Temp start	Cell Temp end	Exposure	Time	Date
1.13189	0.00163222	21.1509	0.00130710	0.802426	1.04885	56.7713	13.5914	162.453	14475.203	0.00150820	NaN	NaN	NaN	8.234	14:39:16	05/15/2024

Vmeas	Imeas
-0.1	0.00163526
-0.08700000	0.00163508
-0.07400000	0.00163415
-0.06100000	0.00163406
-0.04800000	0.00163404
-0.03500000	0.00163354
-0.02200000	0.00163285
-0.00900000	0.00163267
0.00400000	0.00163265
0.01700000	0.00163181
0.03000000	0.00163095
0.04300000	0.00163076
0.05600000	0.00163000
0.06900000	0.00162983
0.08200000	0.00162891
0.09500000	0.00162806
0.108	0.00162728
0.121	0.00162659
0.134	0.00162572
0.147	0.00162426
0.16	0.00162382
0.173	0.00162252
0.186	0.00162067
0.199	0.00162023
0.212	0.00161945
0.225	0.00161750
0.238	0.00161582
0.251	0.00161455
0.264	0.00161353
0.277	0.00161130
0.29	0.00160971
0.303	0.00160836
0.316	0.00160625
0.329	0.00160448
0.342	0.00160188
0.355	0.00159923
0.368	0.00159739
0.381	0.00159407
0.394	0.00159130
0.407	0.00158864
0.42	0.00158513
0.433	0.00158212
0.446	0.00157822
0.459	0.00157367
0.472	0.00156953
0.485	0.00156541
0.498	0.00156080
0.511	0.00155606
0.524	0.00155094
0.537	0.00154465
0.55	0.00153874
0.563	0.00153222
0.576	0.00152579
0.589	0.00151875
0.602	0.00151095
0.615	0.00150265
0.628	0.00149420
0.641	0.00148497
0.654	0.00147502
0.667	0.00146459
0.68	0.00145373
0.693	0.00144190
0.706	0.00142954
0.719	0.00141674
0.732	0.00140228
0.745	0.00138702
0.758	0.00137095
0.771	0.00135380
0.784	0.00133509
0.797	0.00131507
0.81	0.00129403
0.823	0.00127101
0.836	0.00124563
0.849	0.00121882
0.862	0.00118952
0.875	0.00115825
0.888	0.00112470
0.901	0.00108876
0.914	0.00105071
0.927	0.00100925
0.94	0.00097637
0.953	0.00092759
0.966	0.00087579
0.979	0.00082157
0.992	0.00076466
1.005	0.00070495
1.018	0.00064301
1.031	0.00057793
1.044	0.00051070
1.057	0.00044102
1.07	0.00036920
1.083	0.00029525
1.096	0.00021925
1.109	0.00014140
1.122	0.00006813
1.135	-0.00001443
1.148	-0.00009837
1.161	-0.00017787
1.174	-0.00026623
1.187	-0.00035581
1.2	-0.00044678