File: Data/IV_data/2024-05-15-A1-1_A1-6/A1-4-D_ITO+SnO2+PVSK+C6Br+Spiro+Carbon (Antisolvent) 2024-05-15 14-41-54.txt
Device Id	Operator	Recipe
A1-4-D_ITO+SnO2+PVSK+C6Br+Spiro+Carbon (Antisolvent)	Unknown	Jacob PVSKT _ 0.077cm^2 (nature recipe).IV

Sample Area	Irradiance	Pre sweep delay	Bias Direction	Max Reverse Bias	Max Forward Bias	Num Sweep Points	Dwell Time	Current Limit	PVIV 10A I-AMP	Average	Dark Current	Rshunt V-Lo	Rshunt V-Hi
0.077170	1.0000	0.5000	1	-0.1000	1.2000	101	10	130	0	1	0	-0.6000	-0.1000

Voc V	Isc A	Jsc mA/cm2	Imax A	Vmax V	Pmax mW	Fill Factor	Efficiency	R at Voc	R at Isc	Power W	RShunt ohms	Cell Temp start	Cell Temp end	Exposure	Time	Date
1.12293	0.00172566	22.3618	0.00150359	0.835593	1.25639	64.8365	16.2808	123.397	37202.584	0.00167467	NaN	NaN	NaN	8.437	14:41:54	05/15/2024

Vmeas	Imeas
-0.1	0.00172638
-0.08700000	0.00172620
-0.07400000	0.00172666
-0.06100000	0.00172648
-0.04800000	0.00172585
-0.03500000	0.00172592
-0.02200000	0.00172611
-0.00900000	0.00172585
0.00400000	0.00172609
0.01700000	0.00172571
0.03000000	0.00172530
0.04300000	0.00172475
0.05600000	0.00172482
0.06900000	0.00172526
0.08200000	0.00172496
0.09500000	0.00172472
0.108	0.00172412
0.121	0.00172321
0.134	0.00172320
0.147	0.00172341
0.16	0.00172254
0.173	0.00172160
0.186	0.00172165
0.199	0.00172031
0.212	0.00171964
0.225	0.00172002
0.238	0.00171959
0.251	0.00171857
0.264	0.00171814
0.277	0.00171790
0.29	0.00171684
0.303	0.00171629
0.316	0.00171524
0.329	0.00171490
0.342	0.00171398
0.355	0.00171283
0.368	0.00171209
0.381	0.00171088
0.394	0.00171034
0.407	0.00170926
0.42	0.00170804
0.433	0.00170721
0.446	0.00170590
0.459	0.00170453
0.472	0.00170280
0.485	0.00170079
0.498	0.00169941
0.511	0.00169743
0.524	0.00169549
0.537	0.00169345
0.55	0.00169141
0.563	0.00168912
0.576	0.00168634
0.589	0.00168270
0.602	0.00167972
0.615	0.00167660
0.628	0.00167275
0.641	0.00166851
0.654	0.00166346
0.667	0.00165803
0.68	0.00165283
0.693	0.00164641
0.706	0.00163993
0.719	0.00163227
0.732	0.00162365
0.745	0.00161421
0.758	0.00160300
0.771	0.00159066
0.784	0.00157684
0.797	0.00156239
0.81	0.00154493
0.823	0.00152482
0.836	0.00150276
0.849	0.00147821
0.862	0.00144934
0.875	0.00141800
0.888	0.00138281
0.901	0.00134438
0.914	0.00130092
0.927	0.00125091
0.94	0.00119745
0.953	0.00114009
0.966	0.00107882
0.979	0.00101147
0.992	0.00096347
1.005	0.00088265
1.018	0.00079877
1.031	0.00070959
1.044	0.00061625
1.057	0.00051836
1.07	0.00041739
1.083	0.00031199
1.096	0.00020328
1.109	0.00013647
1.122	0.00002592
1.135	-0.00010144
1.148	-0.00021517
1.161	-0.00035062
1.174	-0.00048898
1.187	-0.00062837
1.2	-0.00077270