File: Data/IV_data/2024-05-15-A1-1_A1-6/A1-4-A_ITO+SnO2+PVSK+C6Br+Spiro+Carbon (Antisolvent) 2024-05-15 14-37-20.txt
Device Id	Operator	Recipe
A1-4-A_ITO+SnO2+PVSK+C6Br+Spiro+Carbon (Antisolvent)	Unknown	Jacob PVSKT _ 0.077cm^2 (nature recipe).IV

Sample Area	Irradiance	Pre sweep delay	Bias Direction	Max Reverse Bias	Max Forward Bias	Num Sweep Points	Dwell Time	Current Limit	PVIV 10A I-AMP	Average	Dark Current	Rshunt V-Lo	Rshunt V-Hi
0.077170	1.0000	0.5000	1	-0.1000	1.2000	101	10	130	0	1	0	-0.6000	-0.1000

Voc V	Isc A	Jsc mA/cm2	Imax A	Vmax V	Pmax mW	Fill Factor	Efficiency	R at Voc	R at Isc	Power W	RShunt ohms	Cell Temp start	Cell Temp end	Exposure	Time	Date
1.14519	0.00184141	23.8617	0.00132051	0.801273	1.05809	50.1756	13.7111	164.491	2849.281	0.00160171	NaN	NaN	NaN	8.422	14:37:20	05/15/2024

Vmeas	Imeas
-0.1	0.00187407
-0.08700000	0.00187062
-0.07400000	0.00186744
-0.06100000	0.00186334
-0.04800000	0.00185843
-0.03500000	0.00185454
-0.02200000	0.00185095
-0.00900000	0.00184435
0.00400000	0.00184035
0.01700000	0.00183534
0.03000000	0.00182996
0.04300000	0.00182576
0.05600000	0.00182110
0.06900000	0.00181848
0.08200000	0.00181453
0.09500000	0.00180894
0.108	0.00180417
0.121	0.00179874
0.134	0.00179391
0.147	0.00178990
0.16	0.00178574
0.173	0.00178159
0.186	0.00177702
0.199	0.00177111
0.212	0.00176694
0.225	0.00176183
0.238	0.00175720
0.251	0.00175441
0.264	0.00174888
0.277	0.00174395
0.29	0.00173838
0.303	0.00173358
0.316	0.00172770
0.329	0.00172177
0.342	0.00171536
0.355	0.00170946
0.368	0.00170385
0.381	0.00169712
0.394	0.00168945
0.407	0.00168289
0.42	0.00167634
0.433	0.00166890
0.446	0.00166194
0.459	0.00165425
0.472	0.00164626
0.485	0.00163838
0.498	0.00163014
0.511	0.00162144
0.524	0.00161250
0.537	0.00160354
0.55	0.00159414
0.563	0.00158472
0.576	0.00157505
0.589	0.00156517
0.602	0.00155412
0.615	0.00154304
0.628	0.00153165
0.641	0.00151933
0.654	0.00150652
0.667	0.00149393
0.68	0.00148008
0.693	0.00146605
0.706	0.00145084
0.719	0.00143560
0.732	0.00141977
0.745	0.00140336
0.758	0.00138564
0.771	0.00136717
0.784	0.00134826
0.797	0.00132710
0.81	0.00130577
0.823	0.00128279
0.836	0.00125812
0.849	0.00123268
0.862	0.00120499
0.875	0.00117555
0.888	0.00114426
0.901	0.00111078
0.914	0.00107502
0.927	0.00103669
0.94	0.00100093
0.953	0.00095650
0.966	0.00090968
0.979	0.00085989
0.992	0.00080753
1.005	0.00075232
1.018	0.00069430
1.031	0.00063365
1.044	0.00057051
1.057	0.00050485
1.07	0.00043692
1.083	0.00036685
1.096	0.00029476
1.109	0.00022094
1.122	0.00014520
1.135	0.00006976
1.148	-0.00000822
1.161	-0.00008862
1.174	-0.00017284
1.187	-0.00025824
1.2	-0.00034511