File: Data/IV_data/2024-05-15-A1-1_A1-6/A1-4-B_ITO+SnO2+PVSK+C6Br+Spiro+Carbon (Antisolvent) 2024-05-15 14-38-17.txt
Device Id	Operator	Recipe
A1-4-B_ITO+SnO2+PVSK+C6Br+Spiro+Carbon (Antisolvent)	Unknown	Jacob PVSKT _ 0.077cm^2 (nature recipe).IV

Sample Area	Irradiance	Pre sweep delay	Bias Direction	Max Reverse Bias	Max Forward Bias	Num Sweep Points	Dwell Time	Current Limit	PVIV 10A I-AMP	Average	Dark Current	Rshunt V-Lo	Rshunt V-Hi
0.077170	1.0000	0.5000	1	-0.1000	1.2000	101	10	130	0	1	0	-0.6000	-0.1000

Voc V	Isc A	Jsc mA/cm2	Imax A	Vmax V	Pmax mW	Fill Factor	Efficiency	R at Voc	R at Isc	Power W	RShunt ohms	Cell Temp start	Cell Temp end	Exposure	Time	Date
1.14213	0.00187037	24.237	0.00137534	0.796139	1.09496	51.2573	14.1890	163.309	3049.672	0.00163911	NaN	NaN	NaN	8.219	14:38:17	05/15/2024

Vmeas	Imeas
-0.1	0.00190024
-0.08700000	0.00189570
-0.07400000	0.00189286
-0.06100000	0.00188931
-0.04800000	0.00188642
-0.03500000	0.00188014
-0.02200000	0.00187727
-0.00900000	0.00187374
0.00400000	0.00187036
0.01700000	0.00186633
0.03000000	0.00186251
0.04300000	0.00185855
0.05600000	0.00185424
0.06900000	0.00184960
0.08200000	0.00184427
0.09500000	0.00183992
0.108	0.00183534
0.121	0.00183090
0.134	0.00182673
0.147	0.00182253
0.16	0.00181780
0.173	0.00181438
0.186	0.00181047
0.199	0.00180583
0.212	0.00180135
0.225	0.00179671
0.238	0.00179208
0.251	0.00178880
0.264	0.00178483
0.277	0.00177995
0.29	0.00177400
0.303	0.00176945
0.316	0.00176445
0.329	0.00175928
0.342	0.00175441
0.355	0.00174881
0.368	0.00174344
0.381	0.00173839
0.394	0.00173213
0.407	0.00172589
0.42	0.00171994
0.433	0.00171309
0.446	0.00170732
0.459	0.00170096
0.472	0.00169351
0.485	0.00168639
0.498	0.00167901
0.511	0.00167102
0.524	0.00166307
0.537	0.00165478
0.55	0.00164541
0.563	0.00163570
0.576	0.00162670
0.589	0.00161608
0.602	0.00160611
0.615	0.00159565
0.628	0.00158351
0.641	0.00157160
0.654	0.00155963
0.667	0.00154650
0.68	0.00153237
0.693	0.00151878
0.706	0.00150383
0.719	0.00148819
0.732	0.00147156
0.745	0.00145409
0.758	0.00143606
0.771	0.00141613
0.784	0.00139546
0.797	0.00137377
0.81	0.00135051
0.823	0.00132566
0.836	0.00129964
0.849	0.00127139
0.862	0.00124104
0.875	0.00120880
0.888	0.00117431
0.901	0.00113789
0.914	0.00109852
0.927	0.00105675
0.94	0.00101237
0.953	0.00097278
0.966	0.00092208
0.979	0.00086857
0.992	0.00081250
1.005	0.00075384
1.018	0.00069292
1.031	0.00062940
1.044	0.00056339
1.057	0.00049516
1.07	0.00042499
1.083	0.00035295
1.096	0.00027903
1.109	0.00020339
1.122	0.00012609
1.135	0.00005081
1.148	-0.00003018
1.161	-0.00010769
1.174	-0.00019221
1.187	-0.00027812
1.2	-0.00036531