File: Data/IV_data/2024-05-15-A1-1_A1-6/A1-4-E_ITO+SnO2+PVSK+C6Br+Spiro+Carbon (Antisolvent) 2024-05-15 14-43-06.txt
Device Id	Operator	Recipe
A1-4-E_ITO+SnO2+PVSK+C6Br+Spiro+Carbon (Antisolvent)	Unknown	Jacob PVSKT _ 0.077cm^2 (nature recipe).IV

Sample Area	Irradiance	Pre sweep delay	Bias Direction	Max Reverse Bias	Max Forward Bias	Num Sweep Points	Dwell Time	Current Limit	PVIV 10A I-AMP	Average	Dark Current	Rshunt V-Lo	Rshunt V-Hi
0.077170	1.0000	0.5000	1	-0.1000	1.2000	101	10	130	0	1	0	-0.6000	-0.1000

Voc V	Isc A	Jsc mA/cm2	Imax A	Vmax V	Pmax mW	Fill Factor	Efficiency	R at Voc	R at Isc	Power W	RShunt ohms	Cell Temp start	Cell Temp end	Exposure	Time	Date
1.1109	0.00163770	21.222	0.00140108	0.810562	1.13566	62.4226	14.7164	135.577	27817.639	0.00154814	NaN	NaN	NaN	8.422	14:43:06	05/15/2024

Vmeas	Imeas
-0.1	0.00163866
-0.08700000	0.00163842
-0.07400000	0.00163836
-0.06100000	0.00163910
-0.04800000	0.00163851
-0.03500000	0.00163853
-0.02200000	0.00163828
-0.00900000	0.00163749
0.00400000	0.00163814
0.01700000	0.00163737
0.03000000	0.00163744
0.04300000	0.00163747
0.05600000	0.00163698
0.06900000	0.00163639
0.08200000	0.00163613
0.09500000	0.00163529
0.108	0.00163570
0.121	0.00163514
0.134	0.00163425
0.147	0.00163404
0.16	0.00163331
0.173	0.00163285
0.186	0.00163232
0.199	0.00163122
0.212	0.00163094
0.225	0.00163027
0.238	0.00162922
0.251	0.00162808
0.264	0.00162752
0.277	0.00162671
0.29	0.00162600
0.303	0.00162517
0.316	0.00162400
0.329	0.00162294
0.342	0.00162206
0.355	0.00162081
0.368	0.00161987
0.381	0.00161856
0.394	0.00161718
0.407	0.00161559
0.42	0.00161440
0.433	0.00161305
0.446	0.00161110
0.459	0.00160893
0.472	0.00160707
0.485	0.00160511
0.498	0.00160313
0.511	0.00160064
0.524	0.00159822
0.537	0.00159508
0.55	0.00159210
0.563	0.00158843
0.576	0.00158495
0.589	0.00158072
0.602	0.00157734
0.615	0.00157254
0.628	0.00156769
0.641	0.00156134
0.654	0.00155504
0.667	0.00154810
0.68	0.00154028
0.693	0.00153208
0.706	0.00152340
0.719	0.00151255
0.732	0.00150120
0.745	0.00148920
0.758	0.00147489
0.771	0.00145934
0.784	0.00144217
0.797	0.00142293
0.81	0.00140223
0.823	0.00137863
0.836	0.00135235
0.849	0.00132349
0.862	0.00129144
0.875	0.00125623
0.888	0.00121760
0.901	0.00117555
0.914	0.00113000
0.927	0.00108036
0.94	0.00102680
0.953	0.00099180
0.966	0.00092691
0.979	0.00085857
0.992	0.00078714
1.005	0.00071192
1.018	0.00063376
1.031	0.00055204
1.044	0.00046700
1.057	0.00037862
1.07	0.00028677
1.083	0.00019177
1.096	0.00012894
1.109	0.00003242
1.122	-0.00007707
1.135	-0.00017470
1.148	-0.00029022
1.161	-0.00040779
1.174	-0.00052712
1.187	-0.00064805
1.2	-0.00077124