File: Data/IV_data/2024-05-15-A1-1_A1-6/A1-5-D_ITO+SnO2+PVSK+C6Br+Spiro+Carbon (Air quench) 2024-05-15 14-48-32.txt
Device Id	Operator	Recipe
A1-5-D_ITO+SnO2+PVSK+C6Br+Spiro+Carbon (Air quench)	Unknown	Jacob PVSKT _ 0.077cm^2 (nature recipe).IV

Sample Area	Irradiance	Pre sweep delay	Bias Direction	Max Reverse Bias	Max Forward Bias	Num Sweep Points	Dwell Time	Current Limit	PVIV 10A I-AMP	Average	Dark Current	Rshunt V-Lo	Rshunt V-Hi
0.077170	1.0000	0.5000	1	-0.1000	1.2000	101	10	130	0	1	0	-0.6000	-0.1000

Voc V	Isc A	Jsc mA/cm2	Imax A	Vmax V	Pmax mW	Fill Factor	Efficiency	R at Voc	R at Isc	Power W	RShunt ohms	Cell Temp start	Cell Temp end	Exposure	Time	Date
1.09859	0.00164699	21.3424	0.00142911	0.828466	1.18397	65.4357	15.3423	114.887	28858.959	0.00157145	NaN	NaN	NaN	8.359	14:48:32	05/15/2024

Vmeas	Imeas
-0.1	0.00164970
-0.08700000	0.00164829
-0.07400000	0.00164845
-0.06100000	0.00164807
-0.04800000	0.00164782
-0.03500000	0.00164775
-0.02200000	0.00164733
-0.00900000	0.00164687
0.00400000	0.00164699
0.01700000	0.00164666
0.03000000	0.00164569
0.04300000	0.00164598
0.05600000	0.00164580
0.06900000	0.00164589
0.08200000	0.00164476
0.09500000	0.00164492
0.108	0.00164389
0.121	0.00164358
0.134	0.00164385
0.147	0.00164279
0.16	0.00164219
0.173	0.00164223
0.186	0.00164150
0.199	0.00164096
0.212	0.00164059
0.225	0.00163990
0.238	0.00163887
0.251	0.00163836
0.264	0.00163766
0.277	0.00163676
0.29	0.00163627
0.303	0.00163538
0.316	0.00163367
0.329	0.00163321
0.342	0.00163223
0.355	0.00163132
0.368	0.00163025
0.381	0.00162889
0.394	0.00162771
0.407	0.00162576
0.42	0.00162436
0.433	0.00162357
0.446	0.00162158
0.459	0.00161968
0.472	0.00161777
0.485	0.00161617
0.498	0.00161389
0.511	0.00161224
0.524	0.00161010
0.537	0.00160800
0.55	0.00160479
0.563	0.00160198
0.576	0.00159979
0.589	0.00159639
0.602	0.00159305
0.615	0.00158905
0.628	0.00158537
0.641	0.00158118
0.654	0.00157657
0.667	0.00157123
0.68	0.00156602
0.693	0.00155991
0.706	0.00155302
0.719	0.00154541
0.732	0.00153676
0.745	0.00152754
0.758	0.00151661
0.771	0.00150497
0.784	0.00149127
0.797	0.00147554
0.81	0.00145835
0.823	0.00143830
0.836	0.00141543
0.849	0.00138981
0.862	0.00136064
0.875	0.00132794
0.888	0.00129138
0.901	0.00125003
0.914	0.00120309
0.927	0.00115224
0.94	0.00109621
0.953	0.00103461
0.966	0.00099958
0.979	0.00092303
0.992	0.00084148
1.005	0.00075545
1.018	0.00066475
1.031	0.00056861
1.044	0.00046743
1.057	0.00036079
1.07	0.00024904
1.083	0.00013219
1.096	0.00003061
1.109	-0.00009864
1.122	-0.00020064
1.135	-0.00034184
1.148	-0.00048601
1.161	-0.00063267
1.174	-0.00078190
1.187	-0.00093341
1.2	-0.00107737