File: Data/IV_data/2024-05-15-A1-1_A1-6/A1-5-E_ITO+SnO2+PVSK+C6Br+Spiro+Carbon (Air quench) 2024-05-15 14-49-59.txt
Device Id	Operator	Recipe
A1-5-E_ITO+SnO2+PVSK+C6Br+Spiro+Carbon (Air quench)	Unknown	Jacob PVSKT _ 0.077cm^2 (nature recipe).IV

Sample Area	Irradiance	Pre sweep delay	Bias Direction	Max Reverse Bias	Max Forward Bias	Num Sweep Points	Dwell Time	Current Limit	PVIV 10A I-AMP	Average	Dark Current	Rshunt V-Lo	Rshunt V-Hi
0.077170	1.0000	0.5000	1	-0.1000	1.2000	101	10	130	0	1	0	-0.6000	-0.1000

Voc V	Isc A	Jsc mA/cm2	Imax A	Vmax V	Pmax mW	Fill Factor	Efficiency	R at Voc	R at Isc	Power W	RShunt ohms	Cell Temp start	Cell Temp end	Exposure	Time	Date
1.11388	0.00182653	23.669	0.00162530	0.880794	1.43155	70.3625	18.5506	80.2852	30097.195	0.00182135	NaN	NaN	NaN	8.359	14:49:59	05/15/2024

Vmeas	Imeas
-0.1	0.00182863
-0.08700000	0.00182789
-0.07400000	0.00182779
-0.06100000	0.00182778
-0.04800000	0.00182763
-0.03500000	0.00182766
-0.02200000	0.00182719
-0.00900000	0.00182746
0.00400000	0.00182711
0.01700000	0.00182648
0.03000000	0.00182592
0.04300000	0.00182529
0.05600000	0.00182496
0.06900000	0.00182465
0.08200000	0.00182474
0.09500000	0.00182414
0.108	0.00182431
0.121	0.00182303
0.134	0.00182233
0.147	0.00182191
0.16	0.00182154
0.173	0.00182111
0.186	0.00182094
0.199	0.00182052
0.212	0.00182013
0.225	0.00181951
0.238	0.00181848
0.251	0.00181794
0.264	0.00181786
0.277	0.00181708
0.29	0.00181627
0.303	0.00181534
0.316	0.00181506
0.329	0.00181404
0.342	0.00181345
0.355	0.00181282
0.368	0.00181225
0.381	0.00181135
0.394	0.00181045
0.407	0.00180953
0.42	0.00180808
0.433	0.00180706
0.446	0.00180650
0.459	0.00180570
0.472	0.00180488
0.485	0.00180354
0.498	0.00180194
0.511	0.00180047
0.524	0.00179978
0.537	0.00179860
0.55	0.00179677
0.563	0.00179545
0.576	0.00179305
0.589	0.00179169
0.602	0.00178959
0.615	0.00178715
0.628	0.00178506
0.641	0.00178264
0.654	0.00178015
0.667	0.00177707
0.68	0.00177287
0.693	0.00176993
0.706	0.00176561
0.719	0.00176210
0.732	0.00175714
0.745	0.00175123
0.758	0.00174591
0.771	0.00173942
0.784	0.00173183
0.797	0.00172306
0.81	0.00171333
0.823	0.00170236
0.836	0.00168894
0.849	0.00167387
0.862	0.00165698
0.875	0.00163590
0.888	0.00161109
0.901	0.00158290
0.914	0.00154985
0.927	0.00151107
0.94	0.00146590
0.953	0.00141442
0.966	0.00135332
0.979	0.00128294
0.992	0.00120558
1.005	0.00111649
1.018	0.00101754
1.031	0.00093846
1.044	0.00081490
1.057	0.00068073
1.07	0.00053569
1.083	0.00038162
1.096	0.00021785
1.109	0.00006962
1.122	-0.00010500
1.135	-0.00026320
1.148	-0.00046294
1.161	-0.00066893
1.174	-0.00088086
1.187	-0.00106963
1.2	-0.00129529