File: Data/IV_data/2024-05-15-A1-1_A1-6/A1-5-B_ITO+SnO2+PVSK+C6Br+Spiro+Carbon (Air quench) 2024-05-15 14-46-31.txt
Device Id	Operator	Recipe
A1-5-B_ITO+SnO2+PVSK+C6Br+Spiro+Carbon (Air quench)	Unknown	Jacob PVSKT _ 0.077cm^2 (nature recipe).IV

Sample Area	Irradiance	Pre sweep delay	Bias Direction	Max Reverse Bias	Max Forward Bias	Num Sweep Points	Dwell Time	Current Limit	PVIV 10A I-AMP	Average	Dark Current	Rshunt V-Lo	Rshunt V-Hi
0.077170	1.0000	0.5000	1	-0.1000	1.2000	101	10	130	0	1	0	-0.6000	-0.1000

Voc V	Isc A	Jsc mA/cm2	Imax A	Vmax V	Pmax mW	Fill Factor	Efficiency	R at Voc	R at Isc	Power W	RShunt ohms	Cell Temp start	Cell Temp end	Exposure	Time	Date
1.13879	0.00162488	21.0559	0.00131913	0.855026	1.12789	60.9534	14.6156	118.425	14147.202	0.00156109	NaN	NaN	NaN	8.234	14:46:31	05/15/2024

Vmeas	Imeas
-0.1	0.00162907
-0.08700000	0.00162796
-0.07400000	0.00162766
-0.06100000	0.00162646
-0.04800000	0.00162594
-0.03500000	0.00162599
-0.02200000	0.00162534
-0.00900000	0.00162515
0.00400000	0.00162586
0.01700000	0.00162433
0.03000000	0.00162311
0.04300000	0.00162297
0.05600000	0.00162225
0.06900000	0.00162159
0.08200000	0.00162142
0.09500000	0.00162039
0.108	0.00161953
0.121	0.00161922
0.134	0.00161811
0.147	0.00161677
0.16	0.00161605
0.173	0.00161542
0.186	0.00161430
0.199	0.00161306
0.212	0.00161123
0.225	0.00161017
0.238	0.00160874
0.251	0.00160709
0.264	0.00160517
0.277	0.00160355
0.29	0.00160208
0.303	0.00160035
0.316	0.00159815
0.329	0.00159633
0.342	0.00159427
0.355	0.00159186
0.368	0.00158990
0.381	0.00158733
0.394	0.00158434
0.407	0.00158182
0.42	0.00157910
0.433	0.00157606
0.446	0.00157227
0.459	0.00156944
0.472	0.00156566
0.485	0.00156219
0.498	0.00155861
0.511	0.00155472
0.524	0.00155022
0.537	0.00154620
0.55	0.00154127
0.563	0.00153637
0.576	0.00153172
0.589	0.00152683
0.602	0.00152148
0.615	0.00151567
0.628	0.00150983
0.641	0.00150344
0.654	0.00149722
0.667	0.00149007
0.68	0.00148278
0.693	0.00147500
0.706	0.00146665
0.719	0.00145806
0.732	0.00144868
0.745	0.00143874
0.758	0.00142865
0.771	0.00141729
0.784	0.00140498
0.797	0.00139219
0.81	0.00137813
0.823	0.00136245
0.836	0.00134536
0.849	0.00132731
0.862	0.00130689
0.875	0.00128502
0.888	0.00126049
0.901	0.00123357
0.914	0.00120415
0.927	0.00117137
0.94	0.00113537
0.953	0.00109543
0.966	0.00105138
0.979	0.00100284
0.992	0.00096659
1.005	0.00090687
1.018	0.00084167
1.031	0.00077200
1.044	0.00069676
1.057	0.00061645
1.07	0.00053086
1.083	0.00044039
1.096	0.00034488
1.109	0.00024464
1.122	0.00013959
1.135	0.00004122
1.148	-0.00007372
1.161	-0.00018192
1.174	-0.00030688
1.187	-0.00043526
1.2	-0.00056704