File: Data/IV_data/2024-05-15-A1-1_A1-6/A1-5-A_ITO+SnO2+PVSK+C6Br+Spiro+Carbon (Air quench) 2024-05-15 14-45-02.txt
Device Id	Operator	Recipe
A1-5-A_ITO+SnO2+PVSK+C6Br+Spiro+Carbon (Air quench)	Unknown	Jacob PVSKT _ 0.077cm^2 (nature recipe).IV

Sample Area	Irradiance	Pre sweep delay	Bias Direction	Max Reverse Bias	Max Forward Bias	Num Sweep Points	Dwell Time	Current Limit	PVIV 10A I-AMP	Average	Dark Current	Rshunt V-Lo	Rshunt V-Hi
0.077170	1.0000	0.5000	1	-0.1000	1.2000	101	10	130	0	1	0	-0.6000	-0.1000

Voc V	Isc A	Jsc mA/cm2	Imax A	Vmax V	Pmax mW	Fill Factor	Efficiency	R at Voc	R at Isc	Power W	RShunt ohms	Cell Temp start	Cell Temp end	Exposure	Time	Date
1.12922	0.00153298	19.865	0.00115148	0.79838	0.919319	53.1067	11.9129	179.694	5607.803	0.00136129	NaN	NaN	NaN	8.297	14:45:02	05/15/2024

Vmeas	Imeas
-0.1	0.00154341
-0.08700000	0.00154226
-0.07400000	0.00154060
-0.06100000	0.00153928
-0.04800000	0.00153839
-0.03500000	0.00153712
-0.02200000	0.00153581
-0.00900000	0.00153444
0.00400000	0.00153368
0.01700000	0.00153157
0.03000000	0.00152973
0.04300000	0.00152864
0.05600000	0.00152664
0.06900000	0.00152467
0.08200000	0.00152280
0.09500000	0.00152036
0.108	0.00151861
0.121	0.00151616
0.134	0.00151369
0.147	0.00151140
0.16	0.00150852
0.173	0.00150626
0.186	0.00150315
0.199	0.00150044
0.212	0.00149751
0.225	0.00149405
0.238	0.00149088
0.251	0.00148796
0.264	0.00148427
0.277	0.00148060
0.29	0.00147705
0.303	0.00147340
0.316	0.00146927
0.329	0.00146548
0.342	0.00146119
0.355	0.00145657
0.368	0.00145230
0.381	0.00144754
0.394	0.00144321
0.407	0.00143785
0.42	0.00143300
0.433	0.00142740
0.446	0.00142234
0.459	0.00141657
0.472	0.00141022
0.485	0.00140414
0.498	0.00139799
0.511	0.00139203
0.524	0.00138505
0.537	0.00137828
0.55	0.00137122
0.563	0.00136375
0.576	0.00135626
0.589	0.00134819
0.602	0.00133981
0.615	0.00133085
0.628	0.00132166
0.641	0.00131276
0.654	0.00130261
0.667	0.00129257
0.68	0.00128202
0.693	0.00127059
0.706	0.00125870
0.719	0.00124648
0.732	0.00123314
0.745	0.00121957
0.758	0.00120489
0.771	0.00118947
0.784	0.00117259
0.797	0.00115464
0.81	0.00113578
0.823	0.00111539
0.836	0.00109324
0.849	0.00107005
0.862	0.00104499
0.875	0.00101828
0.888	0.00100291
0.901	0.00097003
0.914	0.00093489
0.927	0.00089777
0.94	0.00085817
0.953	0.00081643
0.966	0.00077207
0.979	0.00072441
0.992	0.00067371
1.005	0.00062079
1.018	0.00056522
1.031	0.00050724
1.044	0.00044720
1.057	0.00038438
1.07	0.00031938
1.083	0.00025254
1.096	0.00018298
1.109	0.00011135
1.122	0.00004542
1.135	-0.00003104
1.148	-0.00009383
1.161	-0.00017578
1.174	-0.00025940
1.187	-0.00034451
1.2	-0.00043182