File: Data/IV_data/2024-05-15-A1-1_A1-6/A1-5-C_ITO+SnO2+PVSK+C6Br+Spiro+Carbon (Air quench) 2024-05-15 14-47-09.txt
Device Id	Operator	Recipe
A1-5-C_ITO+SnO2+PVSK+C6Br+Spiro+Carbon (Air quench)	Unknown	Jacob PVSKT _ 0.077cm^2 (nature recipe).IV

Sample Area	Irradiance	Pre sweep delay	Bias Direction	Max Reverse Bias	Max Forward Bias	Num Sweep Points	Dwell Time	Current Limit	PVIV 10A I-AMP	Average	Dark Current	Rshunt V-Lo	Rshunt V-Hi
0.077170	1.0000	0.5000	1	-0.1000	1.2000	101	10	130	0	1	0	-0.6000	-0.1000

Voc V	Isc A	Jsc mA/cm2	Imax A	Vmax V	Pmax mW	Fill Factor	Efficiency	R at Voc	R at Isc	Power W	RShunt ohms	Cell Temp start	Cell Temp end	Exposure	Time	Date
1.0236	0.00158421	20.5289	0.00096374	0.698484	0.673155	41.5120	8.7230	189.369	1533.449	0.00111167	NaN	NaN	NaN	8.422	14:47:09	05/15/2024

Vmeas	Imeas
-0.1	0.00165037
-0.08700000	0.00164100
-0.07400000	0.00163143
-0.06100000	0.00162289
-0.04800000	0.00161489
-0.03500000	0.00160668
-0.02200000	0.00159813
-0.00900000	0.00158988
0.00400000	0.00158216
0.01700000	0.00157374
0.03000000	0.00156531
0.04300000	0.00155699
0.05600000	0.00154780
0.06900000	0.00153965
0.08200000	0.00153093
0.09500000	0.00152329
0.108	0.00151316
0.121	0.00150516
0.134	0.00149581
0.147	0.00148664
0.16	0.00147806
0.173	0.00146836
0.186	0.00145844
0.199	0.00144969
0.212	0.00144019
0.225	0.00143070
0.238	0.00142124
0.251	0.00141201
0.264	0.00140205
0.277	0.00139229
0.29	0.00138164
0.303	0.00137115
0.316	0.00136094
0.329	0.00135030
0.342	0.00133977
0.355	0.00132899
0.368	0.00131688
0.381	0.00130684
0.394	0.00129555
0.407	0.00128306
0.42	0.00127241
0.433	0.00126030
0.446	0.00124828
0.459	0.00123515
0.472	0.00122284
0.485	0.00120953
0.498	0.00119678
0.511	0.00118150
0.524	0.00117002
0.537	0.00115536
0.55	0.00114141
0.563	0.00112780
0.576	0.00111390
0.589	0.00109942
0.602	0.00108414
0.615	0.00107149
0.628	0.00105333
0.641	0.00103690
0.654	0.00101984
0.667	0.00100399
0.68	0.00098958
0.693	0.00097252
0.706	0.00095383
0.719	0.00093529
0.732	0.00091502
0.745	0.00089509
0.758	0.00087053
0.771	0.00084840
0.784	0.00082392
0.797	0.00079933
0.81	0.00077242
0.823	0.00074476
0.836	0.00071479
0.849	0.00068269
0.862	0.00065126
0.875	0.00061571
0.888	0.00057689
0.901	0.00053574
0.914	0.00049060
0.927	0.00044843
0.94	0.00039666
0.953	0.00034715
0.966	0.00029060
0.979	0.00023018
0.992	0.00016888
1.005	0.00010352
1.018	0.00003972
1.031	-0.00003882
1.044	-0.00008557
1.057	-0.00017518
1.07	-0.00026742
1.083	-0.00036055
1.096	-0.00045976
1.109	-0.00056169
1.122	-0.00066729
1.135	-0.00077579
1.148	-0.00088643
1.161	-0.00100306
1.174	-0.00110783
1.187	-0.00122713
1.2	-0.00135084