File: Data/IV_data/2024-05-15-A1-1_A1-6/A1-6-A_ITO+SnO2+PVSK+C6Br+Spiro+Carbon (Air quench) 2024-05-15 14-57-12.txt
Device Id	Operator	Recipe
A1-6-A_ITO+SnO2+PVSK+C6Br+Spiro+Carbon (Air quench)	Unknown	Jacob PVSKT _ 0.077cm^2 (nature recipe).IV

Sample Area	Irradiance	Pre sweep delay	Bias Direction	Max Reverse Bias	Max Forward Bias	Num Sweep Points	Dwell Time	Current Limit	PVIV 10A I-AMP	Average	Dark Current	Rshunt V-Lo	Rshunt V-Hi
0.077170	1.0000	0.5000	1	-0.1000	1.2000	101	10	130	0	1	0	-0.6000	-0.1000

Voc V	Isc A	Jsc mA/cm2	Imax A	Vmax V	Pmax mW	Fill Factor	Efficiency	R at Voc	R at Isc	Power W	RShunt ohms	Cell Temp start	Cell Temp end	Exposure	Time	Date
1.07769	0.00091767	11.8916	0.00062789	0.740715	0.465091	47.0279	6.0268	279.352	4541.434	0.00072928	NaN	NaN	NaN	8.359	14:57:12	05/15/2024

Vmeas	Imeas
-0.1	0.00093925
-0.08700000	0.00093607
-0.07400000	0.00093294
-0.06100000	0.00093004
-0.04800000	0.00092736
-0.03500000	0.00092456
-0.02200000	0.00092200
-0.00900000	0.00091945
0.00400000	0.00091850
0.01700000	0.00091423
0.03000000	0.00091155
0.04300000	0.00090887
0.05600000	0.00090612
0.06900000	0.00090328
0.08200000	0.00090064
0.09500000	0.00089795
0.108	0.00089482
0.121	0.00089203
0.134	0.00088907
0.147	0.00088585
0.16	0.00088275
0.173	0.00087970
0.186	0.00087673
0.199	0.00087343
0.212	0.00087003
0.225	0.00086674
0.238	0.00086307
0.251	0.00085969
0.264	0.00085619
0.277	0.00085252
0.29	0.00084853
0.303	0.00084492
0.316	0.00084111
0.329	0.00083691
0.342	0.00083281
0.355	0.00082857
0.368	0.00082430
0.381	0.00081982
0.394	0.00081530
0.407	0.00081051
0.42	0.00080579
0.433	0.00080094
0.446	0.00079599
0.459	0.00079081
0.472	0.00078543
0.485	0.00077989
0.498	0.00077430
0.511	0.00076869
0.524	0.00076275
0.537	0.00075646
0.55	0.00075019
0.563	0.00074376
0.576	0.00073701
0.589	0.00073017
0.602	0.00072300
0.615	0.00071548
0.628	0.00070783
0.641	0.00069999
0.654	0.00069185
0.667	0.00068328
0.68	0.00067433
0.693	0.00066509
0.706	0.00065564
0.719	0.00064567
0.732	0.00063529
0.745	0.00062422
0.758	0.00061271
0.771	0.00060068
0.784	0.00058805
0.797	0.00057474
0.81	0.00056090
0.823	0.00054607
0.836	0.00053031
0.849	0.00051383
0.862	0.00049627
0.875	0.00047777
0.888	0.00045822
0.901	0.00043750
0.914	0.00041547
0.927	0.00039225
0.94	0.00036770
0.953	0.00034161
0.966	0.00031415
0.979	0.00028509
0.992	0.00025461
1.005	0.00022261
1.018	0.00018883
1.031	0.00015355
1.044	0.00011658
1.057	0.00007853
1.07	0.00003842
1.083	-0.00000351
1.096	-0.00006632
1.109	-0.00011806
1.122	-0.00016517
1.135	-0.00021470
1.148	-0.00026579
1.161	-0.00031851
1.174	-0.00037292
1.187	-0.00042899
1.2	-0.00048665