File: Data/IV_data/2024-05-15-A1-1_A1-6/A1-6-D_ITO+SnO2+PVSK+C6Br+Spiro+Carbon (Air quench) 2024-05-15 15-00-00.txt
Device Id	Operator	Recipe
A1-6-D_ITO+SnO2+PVSK+C6Br+Spiro+Carbon (Air quench)	Unknown	Jacob PVSKT _ 0.077cm^2 (nature recipe).IV

Sample Area	Irradiance	Pre sweep delay	Bias Direction	Max Reverse Bias	Max Forward Bias	Num Sweep Points	Dwell Time	Current Limit	PVIV 10A I-AMP	Average	Dark Current	Rshunt V-Lo	Rshunt V-Hi
0.077170	1.0000	0.5000	1	-0.1000	1.2000	101	10	130	0	1	0	-0.6000	-0.1000

Voc V	Isc A	Jsc mA/cm2	Imax A	Vmax V	Pmax mW	Fill Factor	Efficiency	R at Voc	R at Isc	Power W	RShunt ohms	Cell Temp start	Cell Temp end	Exposure	Time	Date
0.869079	0.00157078	20.3548	0.00096009	0.505862	0.485674	35.5770	6.2936	293.195	1249.475	0.00085255	NaN	NaN	NaN	8.375	15:00:00	05/15/2024

Vmeas	Imeas
-0.1	0.00164931
-0.08700000	0.00163863
-0.07400000	0.00162831
-0.06100000	0.00161831
-0.04800000	0.00160845
-0.03500000	0.00159872
-0.02200000	0.00158920
-0.00900000	0.00157966
0.00400000	0.00157102
0.01700000	0.00156091
0.03000000	0.00154978
0.04300000	0.00153956
0.05600000	0.00152731
0.06900000	0.00151506
0.08200000	0.00150324
0.09500000	0.00148943
0.108	0.00147523
0.121	0.00146196
0.134	0.00144680
0.147	0.00143201
0.16	0.00141936
0.173	0.00140533
0.186	0.00139099
0.199	0.00137890
0.212	0.00136711
0.225	0.00135102
0.238	0.00133733
0.251	0.00132149
0.264	0.00130752
0.277	0.00129273
0.29	0.00127881
0.303	0.00126342
0.316	0.00124419
0.329	0.00123077
0.342	0.00121525
0.355	0.00119545
0.368	0.00117650
0.381	0.00116117
0.394	0.00113793
0.407	0.00111943
0.42	0.00109983
0.433	0.00108352
0.446	0.00105875
0.459	0.00103524
0.472	0.00101586
0.485	0.00100511
0.498	0.00096984
0.511	0.00095850
0.524	0.00092290
0.537	0.00089162
0.55	0.00086578
0.563	0.00083922
0.576	0.00081380
0.589	0.00078245
0.602	0.00075482
0.615	0.00072027
0.628	0.00069913
0.641	0.00067259
0.654	0.00064785
0.667	0.00062227
0.68	0.00059036
0.693	0.00056622
0.706	0.00052449
0.719	0.00048537
0.732	0.00044440
0.745	0.00041066
0.758	0.00035888
0.771	0.00031419
0.784	0.00027848
0.797	0.00024161
0.81	0.00019375
0.823	0.00016125
0.836	0.00010333
0.849	0.00006573
0.862	0.00002222
0.875	-0.00001492
0.888	-0.00005690
0.901	-0.00006554
0.914	-0.00013075
0.927	-0.00019968
0.94	-0.00028471
0.953	-0.00037006
0.966	-0.00044179
0.979	-0.00051061
0.992	-0.00056199
1.005	-0.00062806
1.018	-0.00071037
1.031	-0.00079338
1.044	-0.00086815
1.057	-0.00093996
1.07	-0.00102907
1.083	-0.00109203
1.096	-0.00118103
1.109	-0.00126905
1.122	-0.00135724
1.135	-0.00145854
1.148	-0.00155310
1.161	-0.00164159
1.174	-0.00173520
1.187	-0.00184855
1.2	-0.00195308