File: Data/IV_data/2024-05-15-A1-1_A1-6/A1-6-B_ITO+SnO2+PVSK+C6Br+Spiro+Carbon (Air quench) 2024-05-15 14-58-21.txt
Device Id	Operator	Recipe
A1-6-B_ITO+SnO2+PVSK+C6Br+Spiro+Carbon (Air quench)	Unknown	Jacob PVSKT _ 0.077cm^2 (nature recipe).IV

Sample Area	Irradiance	Pre sweep delay	Bias Direction	Max Reverse Bias	Max Forward Bias	Num Sweep Points	Dwell Time	Current Limit	PVIV 10A I-AMP	Average	Dark Current	Rshunt V-Lo	Rshunt V-Hi
0.077170	1.0000	0.5000	1	-0.1000	1.2000	101	10	130	0	1	0	-0.6000	-0.1000

Voc V	Isc A	Jsc mA/cm2	Imax A	Vmax V	Pmax mW	Fill Factor	Efficiency	R at Voc	R at Isc	Power W	RShunt ohms	Cell Temp start	Cell Temp end	Exposure	Time	Date
1.11859	0.00150671	19.5245	0.00116192	0.82853	0.962681	57.1195	12.4748	155.386	7822.491	0.00137201	NaN	NaN	NaN	8.297	14:58:21	05/15/2024

Vmeas	Imeas
-0.1	0.00151449
-0.08700000	0.00151331
-0.07400000	0.00151166
-0.06100000	0.00151109
-0.04800000	0.00151027
-0.03500000	0.00150944
-0.02200000	0.00150858
-0.00900000	0.00150762
0.00400000	0.00150744
0.01700000	0.00150537
0.03000000	0.00150442
0.04300000	0.00150316
0.05600000	0.00150195
0.06900000	0.00150095
0.08200000	0.00149937
0.09500000	0.00149808
0.108	0.00149686
0.121	0.00149481
0.134	0.00149348
0.147	0.00149121
0.16	0.00148927
0.173	0.00148722
0.186	0.00148541
0.199	0.00148392
0.212	0.00148160
0.225	0.00147947
0.238	0.00147681
0.251	0.00147448
0.264	0.00147185
0.277	0.00146938
0.29	0.00146653
0.303	0.00146354
0.316	0.00146079
0.329	0.00145707
0.342	0.00145394
0.355	0.00145046
0.368	0.00144735
0.381	0.00144356
0.394	0.00144011
0.407	0.00143602
0.42	0.00143213
0.433	0.00142758
0.446	0.00142288
0.459	0.00141808
0.472	0.00141352
0.485	0.00140828
0.498	0.00140304
0.511	0.00139783
0.524	0.00139196
0.537	0.00138602
0.55	0.00138021
0.563	0.00137399
0.576	0.00136735
0.589	0.00136074
0.602	0.00135374
0.615	0.00134669
0.628	0.00133882
0.641	0.00133120
0.654	0.00132284
0.667	0.00131441
0.68	0.00130578
0.693	0.00129663
0.706	0.00128717
0.719	0.00127678
0.732	0.00126607
0.745	0.00125449
0.758	0.00124292
0.771	0.00123037
0.784	0.00121674
0.797	0.00120287
0.81	0.00118724
0.823	0.00117048
0.836	0.00115205
0.849	0.00113185
0.862	0.00110991
0.875	0.00108561
0.888	0.00105866
0.901	0.00102882
0.914	0.00100432
0.927	0.00096648
0.94	0.00092455
0.953	0.00087861
0.966	0.00082867
0.979	0.00077441
0.992	0.00071688
1.005	0.00065540
1.018	0.00059071
1.031	0.00052265
1.044	0.00045182
1.057	0.00037809
1.07	0.00030166
1.083	0.00022279
1.096	0.00014164
1.109	0.00006659
1.122	-0.00002064
1.135	-0.00009276
1.148	-0.00018724
1.161	-0.00028420
1.174	-0.00038352
1.187	-0.00048499
1.2	-0.00058884