File: Data/IV_data/2024-05-15-A1-1_A1-6/A1-6-E_ITO+SnO2+PVSK+C6Br+Spiro+Carbon (Air quench) 2024-05-15 15-01-12.txt
Device Id	Operator	Recipe
A1-6-E_ITO+SnO2+PVSK+C6Br+Spiro+Carbon (Air quench)	Unknown	Jacob PVSKT _ 0.077cm^2 (nature recipe).IV

Sample Area	Irradiance	Pre sweep delay	Bias Direction	Max Reverse Bias	Max Forward Bias	Num Sweep Points	Dwell Time	Current Limit	PVIV 10A I-AMP	Average	Dark Current	Rshunt V-Lo	Rshunt V-Hi
0.077170	1.0000	0.5000	1	-0.1000	1.2000	101	10	130	0	1	0	-0.6000	-0.1000

Voc V	Isc A	Jsc mA/cm2	Imax A	Vmax V	Pmax mW	Fill Factor	Efficiency	R at Voc	R at Isc	Power W	RShunt ohms	Cell Temp start	Cell Temp end	Exposure	Time	Date
1.10171	0.00178329	23.1086	0.00145483	0.773086	1.12471	57.2466	14.5744	146.435	16461.547	0.00161093	NaN	NaN	NaN	8.219	15:01:12	05/15/2024

Vmeas	Imeas
-0.1	0.00178593
-0.08700000	0.00178564
-0.07400000	0.00178543
-0.06100000	0.00178505
-0.04800000	0.00178503
-0.03500000	0.00178393
-0.02200000	0.00178403
-0.00900000	0.00178397
0.00400000	0.00178353
0.01700000	0.00178278
0.03000000	0.00178236
0.04300000	0.00178166
0.05600000	0.00178143
0.06900000	0.00178075
0.08200000	0.00177968
0.09500000	0.00177945
0.108	0.00177859
0.121	0.00177867
0.134	0.00177764
0.147	0.00177614
0.16	0.00177583
0.173	0.00177506
0.186	0.00177385
0.199	0.00177325
0.212	0.00177212
0.225	0.00177047
0.238	0.00176949
0.251	0.00176820
0.264	0.00176676
0.277	0.00176545
0.29	0.00176357
0.303	0.00176219
0.316	0.00175999
0.329	0.00175772
0.342	0.00175607
0.355	0.00175401
0.368	0.00175185
0.381	0.00174861
0.394	0.00174573
0.407	0.00174344
0.42	0.00173965
0.433	0.00173643
0.446	0.00173312
0.459	0.00172818
0.472	0.00172471
0.485	0.00172002
0.498	0.00171498
0.511	0.00170986
0.524	0.00170391
0.537	0.00169763
0.55	0.00169155
0.563	0.00168411
0.576	0.00167646
0.589	0.00166830
0.602	0.00165872
0.615	0.00164918
0.628	0.00163897
0.641	0.00162840
0.654	0.00161571
0.667	0.00160304
0.68	0.00158951
0.693	0.00157484
0.706	0.00155903
0.719	0.00154177
0.732	0.00152312
0.745	0.00150335
0.758	0.00148171
0.771	0.00145866
0.784	0.00143383
0.797	0.00140668
0.81	0.00137682
0.823	0.00134525
0.836	0.00131065
0.849	0.00127402
0.862	0.00123465
0.875	0.00119205
0.888	0.00114665
0.901	0.00109832
0.914	0.00104746
0.927	0.00101566
0.94	0.00095619
0.953	0.00089339
0.966	0.00082828
0.979	0.00076035
0.992	0.00069044
1.005	0.00061737
1.018	0.00054163
1.031	0.00046356
1.044	0.00038283
1.057	0.00029945
1.07	0.00021352
1.083	0.00012520
1.096	0.00004698
1.109	-0.00004771
1.122	-0.00012466
1.135	-0.00022620
1.148	-0.00032958
1.161	-0.00043495
1.174	-0.00054183
1.187	-0.00065070
1.2	-0.00076123