File: Data/IV_data/2024-05-15-A1-1_A1-6/A1-6-C_ITO+SnO2+PVSK+C6Br+Spiro+Carbon (Air quench) 2024-05-15 14-59-13.txt
Device Id	Operator	Recipe
A1-6-C_ITO+SnO2+PVSK+C6Br+Spiro+Carbon (Air quench)	Unknown	Jacob PVSKT _ 0.077cm^2 (nature recipe).IV

Sample Area	Irradiance	Pre sweep delay	Bias Direction	Max Reverse Bias	Max Forward Bias	Num Sweep Points	Dwell Time	Current Limit	PVIV 10A I-AMP	Average	Dark Current	Rshunt V-Lo	Rshunt V-Hi
0.077170	1.0000	0.5000	1	-0.1000	1.2000	101	10	130	0	1	0	-0.6000	-0.1000

Voc V	Isc A	Jsc mA/cm2	Imax A	Vmax V	Pmax mW	Fill Factor	Efficiency	R at Voc	R at Isc	Power W	RShunt ohms	Cell Temp start	Cell Temp end	Exposure	Time	Date
1.08953	0.00172724	22.3823	0.00144659	0.780268	1.12873	59.9785	14.6265	141.06	26664.737	0.00157328	NaN	NaN	NaN	8.219	14:59:13	05/15/2024

Vmeas	Imeas
-0.1	0.00172905
-0.08700000	0.00172884
-0.07400000	0.00172848
-0.06100000	0.00172777
-0.04800000	0.00172833
-0.03500000	0.00172842
-0.02200000	0.00172755
-0.00900000	0.00172709
0.00400000	0.00172760
0.01700000	0.00172692
0.03000000	0.00172698
0.04300000	0.00172597
0.05600000	0.00172584
0.06900000	0.00172575
0.08200000	0.00172566
0.09500000	0.00172518
0.108	0.00172494
0.121	0.00172384
0.134	0.00172379
0.147	0.00172316
0.16	0.00172257
0.173	0.00172204
0.186	0.00172116
0.199	0.00172090
0.212	0.00171990
0.225	0.00171908
0.238	0.00171846
0.251	0.00171713
0.264	0.00171660
0.277	0.00171583
0.29	0.00171486
0.303	0.00171371
0.316	0.00171199
0.329	0.00171063
0.342	0.00170869
0.355	0.00170733
0.368	0.00170575
0.381	0.00170387
0.394	0.00170199
0.407	0.00169930
0.42	0.00169661
0.433	0.00169389
0.446	0.00169130
0.459	0.00168851
0.472	0.00168513
0.485	0.00168207
0.498	0.00167742
0.511	0.00167369
0.524	0.00166961
0.537	0.00166455
0.55	0.00165951
0.563	0.00165351
0.576	0.00164734
0.589	0.00164092
0.602	0.00163367
0.615	0.00162628
0.628	0.00161793
0.641	0.00160907
0.654	0.00159985
0.667	0.00158952
0.68	0.00157839
0.693	0.00156565
0.706	0.00155230
0.719	0.00153767
0.732	0.00152162
0.745	0.00150393
0.758	0.00148461
0.771	0.00146323
0.784	0.00143951
0.797	0.00141349
0.81	0.00138478
0.823	0.00135334
0.836	0.00131867
0.849	0.00128093
0.862	0.00123954
0.875	0.00119490
0.888	0.00114686
0.901	0.00109513
0.914	0.00103961
0.927	0.00099977
0.94	0.00093615
0.953	0.00086862
0.966	0.00079817
0.979	0.00072477
0.992	0.00064858
1.005	0.00056988
1.018	0.00048839
1.031	0.00040430
1.044	0.00031746
1.057	0.00022809
1.07	0.00013612
1.083	0.00005335
1.096	-0.00004421
1.109	-0.00012524
1.122	-0.00022881
1.135	-0.00033486
1.148	-0.00044236
1.161	-0.00055177
1.174	-0.00066275
1.187	-0.00077565
1.2	-0.00089026