File: Data/IV_data/2024-04-18/AD006-3_ITO+SnO2+PVSK+C6Br+Spiro+Carbon (Air Quench)  2024-04-18 20-57-35.txt
Device Id	Operator	Recipe
AD006-3_ITO+SnO2+PVSK+C6Br+Spiro+Carbon (Air Quench) 	Unknown	Jacob PVSKT _ 0.077cm^2 (nature recipe).IV

Sample Area	Irradiance	Pre sweep delay	Bias Direction	Max Reverse Bias	Max Forward Bias	Num Sweep Points	Dwell Time	Current Limit	PVIV 10A I-AMP	Average	Dark Current	Rshunt V-Lo	Rshunt V-Hi
0.077170	1.0000	0.2000	0	-0.1000	1.2000	65	10	130	0	1	0	-0.6000	-0.1000

Voc V	Isc A	Jsc mA/cm2	Imax A	Vmax V	Pmax mW	Fill Factor	Efficiency	R at Voc	R at Isc	Power W	RShunt ohms	Cell Temp start	Cell Temp end	Exposure	Time	Date
1.03083	0.00160032	20.7376	0.00138910	0.799015	1.10991	67.2810	14.3827	93.4005	20449.314	0.00144677	NaN	NaN	NaN	5.750	20:57:35	04/18/2024

Vmeas	Imeas
1.2	-0.00206115
1.1797	-0.00179992
1.15935	-0.00153509
1.13905	-0.00127369
1.11875	-0.00101778
1.09845	-0.00076487
1.0781	-0.00052230
1.0578	-0.00028759
1.0375	-0.00006470
1.0172	0.00014635
0.99685	0.00034819
0.97655	0.00053275
0.95625	0.00070083
0.93595	0.00085042
0.9156	0.00098073
0.8953	0.00107784
0.875	0.00117546
0.8547	0.00125232
0.83435	0.00131231
0.81405	0.00136069
0.79375	0.00139814
0.77345	0.00142783
0.7531	0.00145106
0.7328	0.00146963
0.7125	0.00148557
0.6922	0.00149811
0.67185	0.00150841
0.65155	0.00151732
0.63125	0.00152519
0.61095	0.00153147
0.5906	0.00153839
0.5703	0.00154378
0.55	0.00154802
0.5297	0.00155268
0.50935	0.00155670
0.48905	0.00156018
0.46875	0.00156357
0.44845	0.00156672
0.4281	0.00156930
0.4078	0.00157276
0.3875	0.00157537
0.3672	0.00157693
0.3469	0.00157922
0.32655	0.00158157
0.30625	0.00158321
0.28595	0.00158503
0.26565	0.00158632
0.2453	0.00158801
0.225	0.00158940
0.2047	0.00159090
0.1844	0.00159202
0.16405	0.00159329
0.14375	0.00159361
0.12345	0.00159523
0.10315	0.00159662
0.08280000	0.00159779
0.06250000	0.00159846
0.04220000	0.00159948
0.02190000	0.00159967
0.00155000	0.00160077
-0.01875000	0.00160129
-0.03905000	0.00160148
-0.05935000	0.00160222
-0.07970000	0.00160237
-0.1	0.00160373