File: Data/IV_data/2024-04-18/AD004-3_ITO+SnO2+PVSK+C6Br+Spiro+Carbon (Air Quench)  2024-04-18 20-44-41.txt
Device Id	Operator	Recipe
AD004-3_ITO+SnO2+PVSK+C6Br+Spiro+Carbon (Air Quench) 	Unknown	Jacob PVSKT _ 0.077cm^2 (nature recipe).IV

Sample Area	Irradiance	Pre sweep delay	Bias Direction	Max Reverse Bias	Max Forward Bias	Num Sweep Points	Dwell Time	Current Limit	PVIV 10A I-AMP	Average	Dark Current	Rshunt V-Lo	Rshunt V-Hi
0.077170	1.0000	0.2000	0	-0.1000	1.2000	65	10	130	0	1	0	-0.6000	-0.1000

Voc V	Isc A	Jsc mA/cm2	Imax A	Vmax V	Pmax mW	Fill Factor	Efficiency	R at Voc	R at Isc	Power W	RShunt ohms	Cell Temp start	Cell Temp end	Exposure	Time	Date
1.05824	0.00146291	18.957	0.00131612	0.847796	1.1158	72.0750	14.4590	88.2169	30492.204	0.00139411	NaN	NaN	NaN	5.750	20:44:41	04/18/2024

Vmeas	Imeas
1.2	-0.00184137
1.1797	-0.00156287
1.15935	-0.00128285
1.13905	-0.00100773
1.11875	-0.00073465
1.09845	-0.00047486
1.0781	-0.00022430
1.0578	0.00001358
1.0375	0.00023646
1.0172	0.00044394
0.99685	0.00063079
0.97655	0.00079544
0.95625	0.00093623
0.93595	0.00105019
0.9156	0.00113497
0.8953	0.00120982
0.875	0.00126470
0.8547	0.00130469
0.83435	0.00133387
0.81405	0.00135535
0.79375	0.00137125
0.77345	0.00138337
0.7531	0.00139267
0.7328	0.00139979
0.7125	0.00140584
0.6922	0.00141094
0.67185	0.00141551
0.65155	0.00141967
0.63125	0.00142236
0.61095	0.00142494
0.5906	0.00142795
0.5703	0.00143171
0.55	0.00143353
0.5297	0.00143548
0.50935	0.00143748
0.48905	0.00143910
0.46875	0.00144110
0.44845	0.00144255
0.4281	0.00144430
0.4078	0.00144633
0.3875	0.00144692
0.3672	0.00144811
0.3469	0.00144930
0.32655	0.00145100
0.30625	0.00145171
0.28595	0.00145286
0.26565	0.00145360
0.2453	0.00145498
0.225	0.00145548
0.2047	0.00145632
0.1844	0.00145757
0.16405	0.00145778
0.14375	0.00145867
0.12345	0.00145955
0.10315	0.00146030
0.08280000	0.00146062
0.06250000	0.00146152
0.04220000	0.00146144
0.02190000	0.00146250
0.00155000	0.00146293
-0.01875000	0.00146367
-0.03905000	0.00146388
-0.05935000	0.00146485
-0.07970000	0.00146453
-0.1	0.00146531