File: Data/IV_data/2024-04-18/AD005-2_ITO+SnO2+PVSK+C6Br+Spiro+Carbon (Air Quench)  2024-04-18 20-49-39.txt
Device Id	Operator	Recipe
AD005-2_ITO+SnO2+PVSK+C6Br+Spiro+Carbon (Air Quench) 	Unknown	Jacob PVSKT _ 0.077cm^2 (nature recipe).IV

Sample Area	Irradiance	Pre sweep delay	Bias Direction	Max Reverse Bias	Max Forward Bias	Num Sweep Points	Dwell Time	Current Limit	PVIV 10A I-AMP	Average	Dark Current	Rshunt V-Lo	Rshunt V-Hi
0.077170	1.0000	0.2000	0	-0.1000	1.2000	65	10	130	0	1	0	-0.6000	-0.1000

Voc V	Isc A	Jsc mA/cm2	Imax A	Vmax V	Pmax mW	Fill Factor	Efficiency	R at Voc	R at Isc	Power W	RShunt ohms	Cell Temp start	Cell Temp end	Exposure	Time	Date
1.0163	0.00173392	22.4689	0.00144515	0.781219	1.12898	64.0673	14.6298	97.51	7878.735	0.00150270	NaN	NaN	NaN	5.750	20:49:39	04/18/2024

Vmeas	Imeas
1.2	-0.00221703
1.1797	-0.00195333
1.15935	-0.00171013
1.13905	-0.00146326
1.11875	-0.00116333
1.09845	-0.00091207
1.0781	-0.00067364
1.0578	-0.00044475
1.0375	-0.00021644
1.0172	-0.00000064
0.99685	0.00019797
0.97655	0.00039344
0.95625	0.00057638
0.93595	0.00074416
0.9156	0.00089025
0.8953	0.00102196
0.875	0.00112491
0.8547	0.00122628
0.83435	0.00130638
0.81405	0.00137034
0.79375	0.00142188
0.77345	0.00145984
0.7531	0.00148690
0.7328	0.00151364
0.7125	0.00153445
0.6922	0.00155330
0.67185	0.00156636
0.65155	0.00157715
0.63125	0.00158885
0.61095	0.00159815
0.5906	0.00160753
0.5703	0.00161725
0.55	0.00162427
0.5297	0.00163173
0.50935	0.00163918
0.48905	0.00164558
0.46875	0.00165238
0.44845	0.00165669
0.4281	0.00166282
0.4078	0.00166963
0.3875	0.00167409
0.3672	0.00167903
0.3469	0.00168227
0.32655	0.00168646
0.30625	0.00169069
0.28595	0.00169483
0.26565	0.00169814
0.2453	0.00170197
0.225	0.00170581
0.2047	0.00170782
0.1844	0.00171106
0.16405	0.00171351
0.14375	0.00171659
0.12345	0.00171945
0.10315	0.00172262
0.08280000	0.00172457
0.06250000	0.00172733
0.04220000	0.00173078
0.02190000	0.00173281
0.00155000	0.00173430
-0.01875000	0.00173643
-0.03905000	0.00173829
-0.05935000	0.00174070
-0.07970000	0.00174177
-0.1	0.00174369