File: Data/IV_data/2024-04-18/AD006-1_ITO+SnO2+PVSK+C6Br+Spiro+Carbon (Air Quench)  2024-04-18 20-54-33.txt
Device Id	Operator	Recipe
AD006-1_ITO+SnO2+PVSK+C6Br+Spiro+Carbon (Air Quench) 	Unknown	Jacob PVSKT _ 0.077cm^2 (nature recipe).IV

Sample Area	Irradiance	Pre sweep delay	Bias Direction	Max Reverse Bias	Max Forward Bias	Num Sweep Points	Dwell Time	Current Limit	PVIV 10A I-AMP	Average	Dark Current	Rshunt V-Lo	Rshunt V-Hi
0.077170	1.0000	0.2000	0	-0.1000	1.2000	65	10	130	0	1	0	-0.6000	-0.1000

Voc V	Isc A	Jsc mA/cm2	Imax A	Vmax V	Pmax mW	Fill Factor	Efficiency	R at Voc	R at Isc	Power W	RShunt ohms	Cell Temp start	Cell Temp end	Exposure	Time	Date
1.00592	0.00156931	20.3357	0.00141611	0.797279	1.12903	71.5212	14.6305	86.16	33936.513	0.00141442	NaN	NaN	NaN	5.531	20:54:33	04/18/2024

Vmeas	Imeas
1.2	-0.00261467
1.1797	-0.00232608
1.15935	-0.00203433
1.13905	-0.00174518
1.11875	-0.00146013
1.09845	-0.00118007
1.0781	-0.00090014
1.0578	-0.00063397
1.0375	-0.00037617
1.0172	-0.00012812
0.99685	0.00010878
0.97655	0.00033168
0.95625	0.00053827
0.93595	0.00072720
0.9156	0.00089470
0.8953	0.00103936
0.875	0.00114835
0.8547	0.00124942
0.83435	0.00132570
0.81405	0.00138159
0.79375	0.00142228
0.77345	0.00145121
0.7531	0.00147096
0.7328	0.00148572
0.7125	0.00149735
0.6922	0.00150561
0.67185	0.00151272
0.65155	0.00151780
0.63125	0.00152180
0.61095	0.00152610
0.5906	0.00152986
0.5703	0.00153273
0.55	0.00153585
0.5297	0.00153861
0.50935	0.00154095
0.48905	0.00154268
0.46875	0.00154549
0.44845	0.00154720
0.4281	0.00154926
0.4078	0.00155129
0.3875	0.00155211
0.3672	0.00155407
0.3469	0.00155613
0.32655	0.00155682
0.30625	0.00155837
0.28595	0.00155934
0.26565	0.00156018
0.2453	0.00156187
0.225	0.00156234
0.2047	0.00156345
0.1844	0.00156439
0.16405	0.00156535
0.14375	0.00156586
0.12345	0.00156652
0.10315	0.00156696
0.08280000	0.00156747
0.06250000	0.00156822
0.04220000	0.00156881
0.02190000	0.00156857
0.00155000	0.00156957
-0.01875000	0.00157004
-0.03905000	0.00157005
-0.05935000	0.00157019
-0.07970000	0.00157081
-0.1	0.00157137