File: Data/IV_data/2024-04-18/AD004-1_ITO+SnO2+PVSK+C6Br+Spiro+Carbon (Air Quench)  2024-04-18 20-41-02.txt
Device Id	Operator	Recipe
AD004-1_ITO+SnO2+PVSK+C6Br+Spiro+Carbon (Air Quench) 	Unknown	Jacob PVSKT _ 0.077cm^2 (nature recipe).IV

Sample Area	Irradiance	Pre sweep delay	Bias Direction	Max Reverse Bias	Max Forward Bias	Num Sweep Points	Dwell Time	Current Limit	PVIV 10A I-AMP	Average	Dark Current	Rshunt V-Lo	Rshunt V-Hi
0.077170	1.0000	0.2000	0	-0.1000	1.2000	65	10	130	0	1	0	-0.6000	-0.1000

Voc V	Isc A	Jsc mA/cm2	Imax A	Vmax V	Pmax mW	Fill Factor	Efficiency	R at Voc	R at Isc	Power W	RShunt ohms	Cell Temp start	Cell Temp end	Exposure	Time	Date
1.05319	0.00145262	18.8237	0.00129359	0.822726	1.06427	69.5652	13.7913	98.8007	33399.742	0.00136083	NaN	NaN	NaN	5.734	20:41:02	04/18/2024

Vmeas	Imeas
1.2	-0.00170299
1.1797	-0.00144739
1.15935	-0.00119488
1.13905	-0.00094323
1.11875	-0.00070450
1.09845	-0.00047368
1.0781	-0.00025132
1.0578	-0.00003965
1.0375	0.00015983
1.0172	0.00034728
0.99685	0.00051991
0.97655	0.00067578
0.95625	0.00081330
0.93595	0.00093262
0.9156	0.00103321
0.8953	0.00111014
0.875	0.00117895
0.8547	0.00123280
0.83435	0.00127383
0.81405	0.00130599
0.79375	0.00133091
0.77345	0.00134979
0.7531	0.00136467
0.7328	0.00137669
0.7125	0.00138670
0.6922	0.00139378
0.67185	0.00139983
0.65155	0.00140523
0.63125	0.00140967
0.61095	0.00141373
0.5906	0.00141757
0.5703	0.00142074
0.55	0.00142329
0.5297	0.00142573
0.50935	0.00142772
0.48905	0.00142988
0.46875	0.00143170
0.44845	0.00143368
0.4281	0.00143498
0.4078	0.00143659
0.3875	0.00143763
0.3672	0.00143885
0.3469	0.00144044
0.32655	0.00144110
0.30625	0.00144250
0.28595	0.00144388
0.26565	0.00144384
0.2453	0.00144503
0.225	0.00144560
0.2047	0.00144702
0.1844	0.00144775
0.16405	0.00144774
0.14375	0.00144870
0.12345	0.00144960
0.10315	0.00144979
0.08280000	0.00145090
0.06250000	0.00145103
0.04220000	0.00145192
0.02190000	0.00145283
0.00155000	0.00145275
-0.01875000	0.00145316
-0.03905000	0.00145329
-0.05935000	0.00145337
-0.07970000	0.00145446
-0.1	0.00145511