File: Data/IV_data/2024-04-18/AD001-3_ITO+SnO2+PVSK+C6Br+Spiro+Carbon (Air Quench)  2024-04-18 20-23-05.txt
Device Id	Operator	Recipe
AD001-3_ITO+SnO2+PVSK+C6Br+Spiro+Carbon (Air Quench) 	Unknown	Jacob PVSKT _ 0.077cm^2 (nature recipe).IV

Sample Area	Irradiance	Pre sweep delay	Bias Direction	Max Reverse Bias	Max Forward Bias	Num Sweep Points	Dwell Time	Current Limit	PVIV 10A I-AMP	Average	Dark Current	Rshunt V-Lo	Rshunt V-Hi
0.077170	1.0000	0.2000	0	-0.1000	1.2000	65	10	130	0	1	0	-0.6000	-0.1000

Voc V	Isc A	Jsc mA/cm2	Imax A	Vmax V	Pmax mW	Fill Factor	Efficiency	R at Voc	R at Isc	Power W	RShunt ohms	Cell Temp start	Cell Temp end	Exposure	Time	Date
0.979486	0.00156355	20.2611	0.00117154	0.729527	0.854671	55.8070	11.0752	118.194	3797.199	0.00122817	NaN	NaN	NaN	5.750	20:23:05	04/18/2024

Vmeas	Imeas
1.2	-0.00233837
1.1797	-0.00209824
1.15935	-0.00185979
1.13905	-0.00162144
1.11875	-0.00139323
1.09845	-0.00117182
1.0781	-0.00094715
1.0578	-0.00073531
1.0375	-0.00052949
1.0172	-0.00033299
0.99685	-0.00014652
0.97655	0.00003150
0.95625	0.00019707
0.93595	0.00035341
0.9156	0.00049555
0.8953	0.00062290
0.875	0.00073556
0.8547	0.00083344
0.83435	0.00091731
0.81405	0.00098588
0.79375	0.00104478
0.77345	0.00108707
0.7531	0.00112966
0.7328	0.00116782
0.7125	0.00119830
0.6922	0.00122495
0.67185	0.00124840
0.65155	0.00126884
0.63125	0.00128774
0.61095	0.00130620
0.5906	0.00132164
0.5703	0.00133727
0.55	0.00135152
0.5297	0.00136432
0.50935	0.00137794
0.48905	0.00138929
0.46875	0.00140063
0.44845	0.00141151
0.4281	0.00142253
0.4078	0.00143258
0.3875	0.00144146
0.3672	0.00145069
0.3469	0.00145978
0.32655	0.00146744
0.30625	0.00147551
0.28595	0.00148265
0.26565	0.00148917
0.2453	0.00149615
0.225	0.00150271
0.2047	0.00151030
0.1844	0.00151708
0.16405	0.00152308
0.14375	0.00152866
0.12345	0.00153433
0.10315	0.00153963
0.08280000	0.00154493
0.06250000	0.00154995
0.04220000	0.00155565
0.02190000	0.00155972
0.00155000	0.00156419
-0.01875000	0.00156874
-0.03905000	0.00157266
-0.05935000	0.00157695
-0.07970000	0.00158073
-0.1	0.00158404