File: Data/IV_data/20240619 - Freezing PVSK #1 - JV Data/FZ_006-4_ITO+SnO2+PVSK+PEAI+Spiro+Carbon (Dry Ice)  2024-06-19 11-10-32.txt
Device Id	Operator	Recipe
FZ_006-4_ITO+SnO2+PVSK+PEAI+Spiro+Carbon (Dry Ice) 	Unknown	Jacob PVSKT _ 0.08cm2 (nature recipe).IV

Sample Area	Irradiance	Pre sweep delay	Bias Direction	Max Reverse Bias	Max Forward Bias	Num Sweep Points	Dwell Time	Current Limit	PVIV 10A I-AMP	Average	Dark Current	Rshunt V-Lo	Rshunt V-Hi
0.080000	1.0000	0.5000	0	-0.1000	1.2000	101	10	130	0	1	0	-0.6000	-0.1000

Voc V	Isc A	Jsc mA/cm2	Imax A	Vmax V	Pmax mW	Fill Factor	Efficiency	R at Voc	R at Isc	Power W	RShunt ohms	Cell Temp start	Cell Temp end	Exposure	Time	Date
1.03387	0.00151304	18.9131	0.00122556	0.743412	0.911094	58.2434	11.3887	121.758	11585.601	0.00130126	NaN	NaN	NaN	8.375	11:10:32	06/19/2024

Vmeas	Imeas
1.2	-0.00156091
1.187	-0.00146194
1.174	-0.00134544
1.161	-0.00121949
1.148	-0.00108888
1.135	-0.00095535
1.122	-0.00082453
1.109	-0.00069318
1.096	-0.00056319
1.083	-0.00043587
1.07	-0.00031179
1.057	-0.00019124
1.044	-0.00007734
1.031	0.00003446
1.018	0.00013245
1.005	0.00023519
0.992	0.00033144
0.979	0.00042206
0.966	0.00050706
0.953	0.00058574
0.94	0.00065870
0.927	0.00072589
0.914	0.00078768
0.901	0.00084450
0.888	0.00089609
0.875	0.00094362
0.862	0.00098650
0.849	0.00102491
0.836	0.00105018
0.823	0.00106069
0.81	0.00109625
0.797	0.00112820
0.784	0.00115628
0.771	0.00118176
0.758	0.00120426
0.745	0.00122582
0.732	0.00124577
0.719	0.00126292
0.706	0.00127680
0.693	0.00129375
0.68	0.00130833
0.667	0.00132135
0.654	0.00133340
0.641	0.00134434
0.628	0.00135415
0.615	0.00136469
0.602	0.00137366
0.589	0.00138241
0.576	0.00139053
0.563	0.00139805
0.55	0.00140545
0.537	0.00141172
0.524	0.00141738
0.511	0.00142362
0.498	0.00142921
0.485	0.00143467
0.472	0.00143903
0.459	0.00144318
0.446	0.00144850
0.433	0.00145158
0.42	0.00145545
0.407	0.00145965
0.394	0.00146336
0.381	0.00146625
0.368	0.00146954
0.355	0.00147222
0.342	0.00147479
0.329	0.00147797
0.316	0.00148024
0.303	0.00148219
0.29	0.00148445
0.277	0.00148659
0.264	0.00148872
0.251	0.00149064
0.238	0.00149186
0.225	0.00149390
0.212	0.00149551
0.199	0.00149753
0.186	0.00149851
0.173	0.00150040
0.16	0.00150074
0.147	0.00150211
0.134	0.00150288
0.121	0.00150512
0.108	0.00150604
0.09500000	0.00150699
0.08200000	0.00150715
0.06900000	0.00150836
0.05600000	0.00150986
0.04300000	0.00151053
0.03000000	0.00151117
0.01700000	0.00151196
0.00400000	0.00151269
-0.00900000	0.00151447
-0.02200000	0.00151471
-0.03500000	0.00151537
-0.04800000	0.00151588
-0.06100000	0.00151689
-0.07400000	0.00151779
-0.08700000	0.00151768
-0.1	0.00151839