File: Data/IV_data/20240619 - Freezing PVSK #1 - JV Data/FZ_001-4_ITO+SnO2+PVSK+PEAI+Spiro+Carbon (RT)  2024-06-19 10-04-23.txt
Device Id	Operator	Recipe
FZ_001-4_ITO+SnO2+PVSK+PEAI+Spiro+Carbon (RT) 	Unknown	Jacob PVSKT _ 0.08cm2 (nature recipe).IV

Sample Area	Irradiance	Pre sweep delay	Bias Direction	Max Reverse Bias	Max Forward Bias	Num Sweep Points	Dwell Time	Current Limit	PVIV 10A I-AMP	Average	Dark Current	Rshunt V-Lo	Rshunt V-Hi
0.080000	1.0000	0.5000	0	-0.1000	1.2000	101	10	130	0	1	0	-0.6000	-0.1000

Voc V	Isc A	Jsc mA/cm2	Imax A	Vmax V	Pmax mW	Fill Factor	Efficiency	R at Voc	R at Isc	Power W	RShunt ohms	Cell Temp start	Cell Temp end	Exposure	Time	Date
0.242644	0.00103774	12.9717	0.00052455	0.123086	0.06456474	25.6411	0.8071	213.673	293.421	0.00012790	NaN	NaN	NaN	8.359	10:04:23	06/19/2024

Vmeas	Imeas
1.2	-0.00708324
1.187	-0.00689443
1.174	-0.00672071
1.161	-0.00655489
1.148	-0.00641130
1.135	-0.00624433
1.122	-0.00611211
1.109	-0.00598425
1.096	-0.00582857
1.083	-0.00569402
1.07	-0.00556001
1.057	-0.00543063
1.044	-0.00530967
1.031	-0.00518496
1.018	-0.00506344
1.005	-0.00493307
0.992	-0.00480574
0.979	-0.00469756
0.966	-0.00457852
0.953	-0.00446564
0.94	-0.00435867
0.927	-0.00425241
0.914	-0.00414704
0.901	-0.00403546
0.888	-0.00392857
0.875	-0.00381941
0.862	-0.00371669
0.849	-0.00360904
0.836	-0.00349969
0.823	-0.00339508
0.81	-0.00329342
0.797	-0.00319136
0.784	-0.00309607
0.771	-0.00299892
0.758	-0.00290484
0.745	-0.00281295
0.732	-0.00271927
0.719	-0.00263034
0.706	-0.00253607
0.693	-0.00244576
0.68	-0.00236083
0.667	-0.00227681
0.654	-0.00219530
0.641	-0.00211137
0.628	-0.00202650
0.615	-0.00194792
0.602	-0.00186622
0.589	-0.00178881
0.576	-0.00171337
0.563	-0.00164075
0.55	-0.00156237
0.537	-0.00149092
0.524	-0.00141822
0.511	-0.00134620
0.498	-0.00127083
0.485	-0.00119938
0.472	-0.00112707
0.459	-0.00105533
0.446	-0.00099439
0.433	-0.00091730
0.42	-0.00085225
0.407	-0.00078241
0.394	-0.00071743
0.381	-0.00065490
0.368	-0.00058772
0.355	-0.00052347
0.342	-0.00045874
0.329	-0.00039985
0.316	-0.00033980
0.303	-0.00027842
0.29	-0.00021553
0.277	-0.00015648
0.264	-0.00010188
0.251	-0.00003672
0.238	0.00002299
0.225	0.00008087
0.212	0.00013107
0.199	0.00019092
0.186	0.00024967
0.173	0.00030480
0.16	0.00036292
0.147	0.00042163
0.134	0.00047789
0.121	0.00053343
0.108	0.00058820
0.09500000	0.00064313
0.08200000	0.00069836
0.06900000	0.00075352
0.05600000	0.00080769
0.04300000	0.00086199
0.03000000	0.00091663
0.01700000	0.00097033
0.00400000	0.00102411
-0.00900000	0.00106841
-0.02200000	0.00112490
-0.03500000	0.00118076
-0.04800000	0.00123590
-0.06100000	0.00129163
-0.07400000	0.00134700
-0.08700000	0.00140281
-0.1	0.00145787