File: Data/IV_data/20240619 - Freezing PVSK #1 - JV Data/FZ_004-5_ITO+SnO2+PVSK+PEAI+Spiro+Carbon (Dry Ice)  2024-06-19 10-39-56.txt
Device Id	Operator	Recipe
FZ_004-5_ITO+SnO2+PVSK+PEAI+Spiro+Carbon (Dry Ice) 	Unknown	Jacob PVSKT _ 0.08cm2 (nature recipe).IV

Sample Area	Irradiance	Pre sweep delay	Bias Direction	Max Reverse Bias	Max Forward Bias	Num Sweep Points	Dwell Time	Current Limit	PVIV 10A I-AMP	Average	Dark Current	Rshunt V-Lo	Rshunt V-Hi
0.080000	1.0000	0.5000	0	-0.1000	1.2000	101	10	130	0	1	0	-0.6000	-0.1000

Voc V	Isc A	Jsc mA/cm2	Imax A	Vmax V	Pmax mW	Fill Factor	Efficiency	R at Voc	R at Isc	Power W	RShunt ohms	Cell Temp start	Cell Temp end	Exposure	Time	Date
1.05459	0.00158129	19.7662	0.00122345	0.691459	0.845968	50.7291	10.5746	157.212	7120.236	0.00130517	NaN	NaN	NaN	8.562	10:39:56	06/19/2024

Vmeas	Imeas
1.2	-0.00112194
1.187	-0.00100503
1.174	-0.00090599
1.161	-0.00079424
1.148	-0.00068499
1.135	-0.00057845
1.122	-0.00047422
1.109	-0.00037307
1.096	-0.00027453
1.083	-0.00017871
1.07	-0.00008740
1.057	-0.00000122
1.044	0.00007853
1.031	0.00015209
1.018	0.00023128
1.005	0.00030641
0.992	0.00037766
0.979	0.00044512
0.966	0.00050882
0.953	0.00056857
0.94	0.00062461
0.927	0.00067700
0.914	0.00072623
0.901	0.00077246
0.888	0.00081569
0.875	0.00085665
0.862	0.00089526
0.849	0.00093022
0.836	0.00096500
0.823	0.00099793
0.81	0.00102881
0.797	0.00105018
0.784	0.00102401
0.771	0.00106380
0.758	0.00109617
0.745	0.00112530
0.732	0.00115230
0.719	0.00117738
0.706	0.00120103
0.693	0.00122302
0.68	0.00124368
0.667	0.00126309
0.654	0.00128120
0.641	0.00129773
0.628	0.00131478
0.615	0.00133045
0.602	0.00134488
0.589	0.00135899
0.576	0.00137232
0.563	0.00138444
0.55	0.00139603
0.537	0.00140725
0.524	0.00141819
0.511	0.00142853
0.498	0.00143779
0.485	0.00144695
0.472	0.00145526
0.459	0.00146365
0.446	0.00147038
0.433	0.00147798
0.42	0.00148512
0.407	0.00149131
0.394	0.00149793
0.381	0.00150345
0.368	0.00150885
0.355	0.00151329
0.342	0.00151793
0.329	0.00152259
0.316	0.00152691
0.303	0.00153111
0.29	0.00153542
0.277	0.00153877
0.264	0.00154191
0.251	0.00154534
0.238	0.00154819
0.225	0.00155109
0.212	0.00155368
0.199	0.00155644
0.186	0.00155887
0.173	0.00156095
0.16	0.00156269
0.147	0.00156491
0.134	0.00156701
0.121	0.00156844
0.108	0.00157023
0.09500000	0.00157189
0.08200000	0.00157326
0.06900000	0.00157477
0.05600000	0.00157615
0.04300000	0.00157798
0.03000000	0.00157874
0.01700000	0.00158093
0.00400000	0.00158062
-0.00900000	0.00158227
-0.02200000	0.00158328
-0.03500000	0.00158472
-0.04800000	0.00158545
-0.06100000	0.00158584
-0.07400000	0.00158727
-0.08700000	0.00158819
-0.1	0.00158882