File: Data/IV_data/20240619 - Freezing PVSK #1 - JV Data/FZ_003-2_ITO+SnO2+PVSK+PEAI+Spiro+Carbon (RT)  2024-06-19 10-19-21.txt
Device Id	Operator	Recipe
FZ_003-2_ITO+SnO2+PVSK+PEAI+Spiro+Carbon (RT) 	Unknown	Jacob PVSKT _ 0.08cm2 (nature recipe).IV

Sample Area	Irradiance	Pre sweep delay	Bias Direction	Max Reverse Bias	Max Forward Bias	Num Sweep Points	Dwell Time	Current Limit	PVIV 10A I-AMP	Average	Dark Current	Rshunt V-Lo	Rshunt V-Hi
0.080000	1.0000	0.5000	0	-0.1000	1.2000	101	10	130	0	1	0	-0.6000	-0.1000

Voc V	Isc A	Jsc mA/cm2	Imax A	Vmax V	Pmax mW	Fill Factor	Efficiency	R at Voc	R at Isc	Power W	RShunt ohms	Cell Temp start	Cell Temp end	Exposure	Time	Date
1.06275	0.00152930	19.1162	0.00100820	0.71473	0.720593	44.3372	9.0074	240.588	3305.492	0.00116681	NaN	NaN	NaN	8.281	10:19:21	06/19/2024

Vmeas	Imeas
1.2	-0.00060797
1.187	-0.00054716
1.174	-0.00048732
1.161	-0.00042832
1.148	-0.00036982
1.135	-0.00031148
1.122	-0.00025317
1.109	-0.00019527
1.096	-0.00013785
1.083	-0.00008067
1.07	-0.00002458
1.057	0.00003073
1.044	0.00008492
1.031	0.00013407
1.018	0.00018675
1.005	0.00023767
0.992	0.00028703
0.979	0.00033494
0.966	0.00038139
0.953	0.00042633
0.94	0.00046962
0.927	0.00051113
0.914	0.00055153
0.901	0.00059035
0.888	0.00062782
0.875	0.00066392
0.862	0.00069873
0.849	0.00073229
0.836	0.00076464
0.823	0.00079570
0.81	0.00082575
0.797	0.00085460
0.784	0.00088238
0.771	0.00090908
0.758	0.00093490
0.745	0.00095968
0.732	0.00098278
0.719	0.00100600
0.706	0.00102822
0.693	0.00104903
0.68	0.00104003
0.667	0.00106404
0.654	0.00108584
0.641	0.00110651
0.628	0.00112600
0.615	0.00114383
0.602	0.00116165
0.589	0.00117856
0.576	0.00119464
0.563	0.00121018
0.55	0.00122509
0.537	0.00123956
0.524	0.00125316
0.511	0.00126607
0.498	0.00127875
0.485	0.00129094
0.472	0.00130257
0.459	0.00131397
0.446	0.00132457
0.433	0.00133495
0.42	0.00134487
0.407	0.00135458
0.394	0.00136422
0.381	0.00137285
0.368	0.00138133
0.355	0.00138944
0.342	0.00139761
0.329	0.00140467
0.316	0.00141218
0.303	0.00141909
0.29	0.00142598
0.277	0.00143266
0.264	0.00143918
0.251	0.00144532
0.238	0.00145086
0.225	0.00145667
0.212	0.00146253
0.199	0.00146793
0.186	0.00147288
0.173	0.00147803
0.16	0.00148306
0.147	0.00148772
0.134	0.00149168
0.121	0.00149635
0.108	0.00150043
0.09500000	0.00150435
0.08200000	0.00150847
0.06900000	0.00151241
0.05600000	0.00151610
0.04300000	0.00151971
0.03000000	0.00152301
0.01700000	0.00152646
0.00400000	0.00152987
-0.00900000	0.00153393
-0.02200000	0.00153688
-0.03500000	0.00153929
-0.04800000	0.00154200
-0.06100000	0.00154471
-0.07400000	0.00154743
-0.08700000	0.00154994
-0.1	0.00155276