File: Data/IV_data/20240619 - Freezing PVSK #1 - JV Data/FZ_004-6_ITO+SnO2+PVSK+PEAI+Spiro+Carbon (Dry Ice)  2024-06-19 10-42-23.txt
Device Id	Operator	Recipe
FZ_004-6_ITO+SnO2+PVSK+PEAI+Spiro+Carbon (Dry Ice) 	Unknown	Jacob PVSKT _ 0.08cm2 (nature recipe).IV

Sample Area	Irradiance	Pre sweep delay	Bias Direction	Max Reverse Bias	Max Forward Bias	Num Sweep Points	Dwell Time	Current Limit	PVIV 10A I-AMP	Average	Dark Current	Rshunt V-Lo	Rshunt V-Hi
0.080000	1.0000	0.5000	0	-0.1000	1.2000	101	10	130	0	1	0	-0.6000	-0.1000

Voc V	Isc A	Jsc mA/cm2	Imax A	Vmax V	Pmax mW	Fill Factor	Efficiency	R at Voc	R at Isc	Power W	RShunt ohms	Cell Temp start	Cell Temp end	Exposure	Time	Date
1.04497	0.00149667	18.7084	0.00119766	0.74616	0.893648	57.1392	11.1706	122.081	8632.368	0.00128955	NaN	NaN	NaN	8.359	10:42:23	06/19/2024

Vmeas	Imeas
1.2	-0.00146512
1.187	-0.00135470
1.174	-0.00123329
1.161	-0.00110489
1.148	-0.00097617
1.135	-0.00084484
1.122	-0.00071224
1.109	-0.00058112
1.096	-0.00045256
1.083	-0.00032754
1.07	-0.00020647
1.057	-0.00009204
1.044	0.00001961
1.031	0.00011675
1.018	0.00021893
1.005	0.00031404
0.992	0.00040335
0.979	0.00048673
0.966	0.00056430
0.953	0.00063581
0.94	0.00070155
0.927	0.00076181
0.914	0.00081700
0.901	0.00086737
0.888	0.00091319
0.875	0.00095500
0.862	0.00099279
0.849	0.00102776
0.836	0.00105018
0.823	0.00104877
0.81	0.00108212
0.797	0.00111139
0.784	0.00113747
0.771	0.00116074
0.758	0.00118250
0.745	0.00120197
0.732	0.00122002
0.719	0.00123667
0.706	0.00125246
0.693	0.00126649
0.68	0.00128014
0.667	0.00129224
0.654	0.00130360
0.641	0.00131438
0.628	0.00132471
0.615	0.00133362
0.602	0.00134274
0.589	0.00135127
0.576	0.00135927
0.563	0.00136653
0.55	0.00137346
0.537	0.00137963
0.524	0.00138664
0.511	0.00139248
0.498	0.00139830
0.485	0.00140375
0.472	0.00140900
0.459	0.00141396
0.446	0.00141873
0.433	0.00142208
0.42	0.00142663
0.407	0.00143114
0.394	0.00143516
0.381	0.00143810
0.368	0.00144171
0.355	0.00144533
0.342	0.00144837
0.329	0.00145053
0.316	0.00145414
0.303	0.00145658
0.29	0.00145945
0.277	0.00146200
0.264	0.00146445
0.251	0.00146652
0.238	0.00146869
0.225	0.00147026
0.212	0.00147241
0.199	0.00147446
0.186	0.00147612
0.173	0.00147830
0.16	0.00148063
0.147	0.00148219
0.134	0.00148385
0.121	0.00148506
0.108	0.00148600
0.09500000	0.00148811
0.08200000	0.00148934
0.06900000	0.00149065
0.05600000	0.00149168
0.04300000	0.00149362
0.03000000	0.00149437
0.01700000	0.00149600
0.00400000	0.00149695
-0.00900000	0.00149760
-0.02200000	0.00149878
-0.03500000	0.00149938
-0.04800000	0.00150098
-0.06100000	0.00150156
-0.07400000	0.00150289
-0.08700000	0.00150363
-0.1	0.00150471