File: Data/IV_data/20240619 - Freezing PVSK #1 - JV Data/FZ_001-2_ITO+SnO2+PVSK+PEAI+Spiro+Carbon (RT)  2024-06-19 10-03-28.txt
Device Id	Operator	Recipe
FZ_001-2_ITO+SnO2+PVSK+PEAI+Spiro+Carbon (RT) 	Unknown	Jacob PVSKT _ 0.08cm2 (nature recipe).IV

Sample Area	Irradiance	Pre sweep delay	Bias Direction	Max Reverse Bias	Max Forward Bias	Num Sweep Points	Dwell Time	Current Limit	PVIV 10A I-AMP	Average	Dark Current	Rshunt V-Lo	Rshunt V-Hi
0.080000	1.0000	0.5000	0	-0.1000	1.2000	101	10	130	0	1	0	-0.6000	-0.1000

Voc V	Isc A	Jsc mA/cm2	Imax A	Vmax V	Pmax mW	Fill Factor	Efficiency	R at Voc	R at Isc	Power W	RShunt ohms	Cell Temp start	Cell Temp end	Exposure	Time	Date
0.202402	0.00056698	7.0873	0.00028832	0.10142	0.02924113	25.4805	0.3655	337.191	369.914	0.00005811	NaN	NaN	NaN	8.234	10:03:28	06/19/2024

Vmeas	Imeas
1.2	-0.00430290
1.187	-0.00420490
1.174	-0.00408880
1.161	-0.00400193
1.148	-0.00390468
1.135	-0.00381717
1.122	-0.00374349
1.109	-0.00367113
1.096	-0.00362427
1.083	-0.00356267
1.07	-0.00344722
1.057	-0.00337542
1.044	-0.00331486
1.031	-0.00324977
1.018	-0.00319434
1.005	-0.00313698
0.992	-0.00306129
0.979	-0.00298858
0.966	-0.00292186
0.953	-0.00287669
0.94	-0.00282113
0.927	-0.00276483
0.914	-0.00270540
0.901	-0.00263293
0.888	-0.00256712
0.875	-0.00250691
0.862	-0.00244498
0.849	-0.00239054
0.836	-0.00232689
0.823	-0.00226367
0.81	-0.00220867
0.797	-0.00214920
0.784	-0.00209142
0.771	-0.00203012
0.758	-0.00197843
0.745	-0.00191961
0.732	-0.00186720
0.719	-0.00181218
0.706	-0.00175790
0.693	-0.00170653
0.68	-0.00165227
0.667	-0.00159943
0.654	-0.00154629
0.641	-0.00149704
0.628	-0.00144483
0.615	-0.00139167
0.602	-0.00134400
0.589	-0.00129373
0.576	-0.00124472
0.563	-0.00119703
0.55	-0.00114785
0.537	-0.00110009
0.524	-0.00105167
0.511	-0.00100485
0.498	-0.00096087
0.485	-0.00091341
0.472	-0.00086805
0.459	-0.00082124
0.446	-0.00077626
0.433	-0.00073190
0.42	-0.00068688
0.407	-0.00064150
0.394	-0.00059912
0.381	-0.00055594
0.368	-0.00051451
0.355	-0.00047323
0.342	-0.00043068
0.329	-0.00038826
0.316	-0.00034656
0.303	-0.00030573
0.29	-0.00026551
0.277	-0.00022575
0.264	-0.00018563
0.251	-0.00014533
0.238	-0.00010575
0.225	-0.00006830
0.212	-0.00002854
0.199	0.00001025
0.186	0.00004856
0.173	0.00008643
0.16	0.00012163
0.147	0.00015848
0.134	0.00019609
0.121	0.00023297
0.108	0.00026964
0.09500000	0.00030655
0.08200000	0.00034270
0.06900000	0.00037879
0.05600000	0.00041456
0.04300000	0.00044989
0.03000000	0.00048549
0.01700000	0.00052078
0.00400000	0.00055617
-0.00900000	0.00059131
-0.02200000	0.00062626
-0.03500000	0.00066108
-0.04800000	0.00069644
-0.06100000	0.00073175
-0.07400000	0.00076685
-0.08700000	0.00080232
-0.1	0.00083724