File: Data/IV_data/20240619 - Freezing PVSK #1 - JV Data/FZ_005-4_ITO+SnO2+PVSK+PEAI+Spiro+Carbon (Dry Ice)  2024-06-19 10-56-19.txt
Device Id	Operator	Recipe
FZ_005-4_ITO+SnO2+PVSK+PEAI+Spiro+Carbon (Dry Ice) 	Unknown	Jacob PVSKT _ 0.08cm2 (nature recipe).IV

Sample Area	Irradiance	Pre sweep delay	Bias Direction	Max Reverse Bias	Max Forward Bias	Num Sweep Points	Dwell Time	Current Limit	PVIV 10A I-AMP	Average	Dark Current	Rshunt V-Lo	Rshunt V-Hi
0.080000	1.0000	0.5000	0	-0.1000	1.2000	101	10	130	0	1	0	-0.6000	-0.1000

Voc V	Isc A	Jsc mA/cm2	Imax A	Vmax V	Pmax mW	Fill Factor	Efficiency	R at Voc	R at Isc	Power W	RShunt ohms	Cell Temp start	Cell Temp end	Exposure	Time	Date
1.04124	0.00148330	18.5413	0.00102176	0.752002	0.768367	49.7494	9.6046	167.074	4792.342	0.00118678	NaN	NaN	NaN	8.547	10:56:19	06/19/2024

Vmeas	Imeas
1.2	-0.00111433
1.187	-0.00102650
1.174	-0.00093984
1.161	-0.00084258
1.148	-0.00074296
1.135	-0.00064327
1.122	-0.00054380
1.109	-0.00044703
1.096	-0.00035211
1.083	-0.00026006
1.07	-0.00017048
1.057	-0.00008510
1.044	-0.00000424
1.031	0.00007162
1.018	0.00014281
1.005	0.00021660
0.992	0.00028582
0.979	0.00035110
0.966	0.00041303
0.953	0.00047112
0.94	0.00052549
0.927	0.00057643
0.914	0.00062439
0.901	0.00066931
0.888	0.00071123
0.875	0.00075106
0.862	0.00078806
0.849	0.00082167
0.836	0.00085525
0.823	0.00088636
0.81	0.00091548
0.797	0.00094335
0.784	0.00096896
0.771	0.00099410
0.758	0.00101769
0.745	0.00104055
0.732	0.00105018
0.719	0.00104802
0.706	0.00107372
0.693	0.00109530
0.68	0.00111564
0.667	0.00113452
0.654	0.00115239
0.641	0.00116873
0.628	0.00118445
0.615	0.00119937
0.602	0.00121387
0.589	0.00122714
0.576	0.00123997
0.563	0.00125235
0.55	0.00126383
0.537	0.00127508
0.524	0.00128523
0.511	0.00129599
0.498	0.00130596
0.485	0.00131520
0.472	0.00132426
0.459	0.00133251
0.446	0.00134009
0.433	0.00134829
0.42	0.00135596
0.407	0.00136321
0.394	0.00136993
0.381	0.00137649
0.368	0.00138253
0.355	0.00138819
0.342	0.00139426
0.329	0.00139982
0.316	0.00140528
0.303	0.00141046
0.29	0.00141451
0.277	0.00141935
0.264	0.00142418
0.251	0.00142868
0.238	0.00143270
0.225	0.00143694
0.212	0.00144066
0.199	0.00144397
0.186	0.00144766
0.173	0.00145118
0.16	0.00145374
0.147	0.00145725
0.134	0.00146025
0.121	0.00146300
0.108	0.00146514
0.09500000	0.00146834
0.08200000	0.00147088
0.06900000	0.00147288
0.05600000	0.00147519
0.04300000	0.00147707
0.03000000	0.00147946
0.01700000	0.00148156
0.00400000	0.00148346
-0.00900000	0.00148566
-0.02200000	0.00148671
-0.03500000	0.00148880
-0.04800000	0.00149035
-0.06100000	0.00149211
-0.07400000	0.00149369
-0.08700000	0.00149561
-0.1	0.00149648