File: Data/IV_data/20240619 - Freezing PVSK #1 - JV Data/FZ_004-2_ITO+SnO2+PVSK+PEAI+Spiro+Carbon (Dry Ice)  2024-06-19 10-33-45.txt
Device Id	Operator	Recipe
FZ_004-2_ITO+SnO2+PVSK+PEAI+Spiro+Carbon (Dry Ice) 	Unknown	Jacob PVSKT _ 0.08cm2 (nature recipe).IV

Sample Area	Irradiance	Pre sweep delay	Bias Direction	Max Reverse Bias	Max Forward Bias	Num Sweep Points	Dwell Time	Current Limit	PVIV 10A I-AMP	Average	Dark Current	Rshunt V-Lo	Rshunt V-Hi
0.080000	1.0000	0.5000	0	-0.1000	1.2000	101	10	130	0	1	0	-0.6000	-0.1000

Voc V	Isc A	Jsc mA/cm2	Imax A	Vmax V	Pmax mW	Fill Factor	Efficiency	R at Voc	R at Isc	Power W	RShunt ohms	Cell Temp start	Cell Temp end	Exposure	Time	Date
1.03427	0.00127501	15.9376	0.00084790	0.687453	0.582891	44.2019	7.2861	225.942	2988.590	0.00094369	NaN	NaN	NaN	8.297	10:33:45	06/19/2024

Vmeas	Imeas
1.2	-0.00086229
1.187	-0.00080480
1.174	-0.00073682
1.161	-0.00066438
1.148	-0.00058988
1.135	-0.00051521
1.122	-0.00044065
1.109	-0.00036750
1.096	-0.00029595
1.083	-0.00022656
1.07	-0.00015917
1.057	-0.00009510
1.044	-0.00003289
1.031	0.00002655
1.018	0.00008326
1.005	0.00013197
0.992	0.00018433
0.979	0.00023328
0.966	0.00027930
0.953	0.00032280
0.94	0.00036370
0.927	0.00040177
0.914	0.00043816
0.901	0.00047230
0.888	0.00050465
0.875	0.00053519
0.862	0.00056405
0.849	0.00059134
0.836	0.00061739
0.823	0.00064236
0.81	0.00066608
0.797	0.00068897
0.784	0.00071078
0.771	0.00073149
0.758	0.00075136
0.745	0.00077079
0.732	0.00078939
0.719	0.00080700
0.706	0.00082458
0.693	0.00084109
0.68	0.00085715
0.667	0.00087247
0.654	0.00088728
0.641	0.00090158
0.628	0.00091541
0.615	0.00092904
0.602	0.00094205
0.589	0.00095475
0.576	0.00096694
0.563	0.00097878
0.55	0.00099006
0.537	0.00100129
0.524	0.00101212
0.511	0.00102288
0.498	0.00103343
0.485	0.00104330
0.472	0.00105018
0.459	0.00105330
0.446	0.00106394
0.433	0.00107398
0.42	0.00108284
0.407	0.00109142
0.394	0.00110093
0.381	0.00110862
0.368	0.00111665
0.355	0.00112453
0.342	0.00113259
0.329	0.00113959
0.316	0.00114701
0.303	0.00115377
0.29	0.00116050
0.277	0.00116731
0.264	0.00117355
0.251	0.00117987
0.238	0.00118655
0.225	0.00119224
0.212	0.00119809
0.199	0.00120408
0.186	0.00120963
0.173	0.00121521
0.16	0.00122030
0.147	0.00122573
0.134	0.00123051
0.121	0.00123542
0.108	0.00124039
0.09500000	0.00124495
0.08200000	0.00124986
0.06900000	0.00125417
0.05600000	0.00125788
0.04300000	0.00126276
0.03000000	0.00126725
0.01700000	0.00127089
0.00400000	0.00127493
-0.00900000	0.00128009
-0.02200000	0.00128361
-0.03500000	0.00128735
-0.04800000	0.00129072
-0.06100000	0.00129416
-0.07400000	0.00129754
-0.08700000	0.00130115
-0.1	0.00130420