File: Data/IV_data/20240619 - Freezing PVSK #1 - JV Data/FZ_006-2_ITO+SnO2+PVSK+PEAI+Spiro+Carbon (Dry Ice)  2024-06-19 11-07-34.txt
Device Id	Operator	Recipe
FZ_006-2_ITO+SnO2+PVSK+PEAI+Spiro+Carbon (Dry Ice) 	Unknown	Jacob PVSKT _ 0.08cm2 (nature recipe).IV

Sample Area	Irradiance	Pre sweep delay	Bias Direction	Max Reverse Bias	Max Forward Bias	Num Sweep Points	Dwell Time	Current Limit	PVIV 10A I-AMP	Average	Dark Current	Rshunt V-Lo	Rshunt V-Hi
0.080000	1.0000	0.5000	0	-0.1000	1.2000	101	10	130	0	1	0	-0.6000	-0.1000

Voc V	Isc A	Jsc mA/cm2	Imax A	Vmax V	Pmax mW	Fill Factor	Efficiency	R at Voc	R at Isc	Power W	RShunt ohms	Cell Temp start	Cell Temp end	Exposure	Time	Date
0.103274	0.00068248	8.53102	0.00034370	0.05105208	0.01754658	24.8950	0.2193	146.315	151.809	0.00003507	NaN	NaN	NaN	8.359	11:07:34	06/19/2024

Vmeas	Imeas
1.2	-0.00790081
1.187	-0.00781409
1.174	-0.00772450
1.161	-0.00762920
1.148	-0.00753468
1.135	-0.00743361
1.122	-0.00733693
1.109	-0.00723956
1.096	-0.00714434
1.083	-0.00705034
1.07	-0.00695526
1.057	-0.00685533
1.044	-0.00676003
1.031	-0.00665984
1.018	-0.00655991
1.005	-0.00646549
0.992	-0.00636883
0.979	-0.00627151
0.966	-0.00617100
0.953	-0.00607594
0.94	-0.00597380
0.927	-0.00587492
0.914	-0.00577495
0.901	-0.00567422
0.888	-0.00557449
0.875	-0.00547178
0.862	-0.00537221
0.849	-0.00527276
0.836	-0.00517412
0.823	-0.00507399
0.81	-0.00497740
0.797	-0.00487874
0.784	-0.00477587
0.771	-0.00467866
0.758	-0.00458101
0.745	-0.00448393
0.732	-0.00438746
0.719	-0.00429075
0.706	-0.00419335
0.693	-0.00409693
0.68	-0.00399969
0.667	-0.00390463
0.654	-0.00380979
0.641	-0.00371390
0.628	-0.00361827
0.615	-0.00352490
0.602	-0.00342985
0.589	-0.00333777
0.576	-0.00324256
0.563	-0.00314948
0.55	-0.00305618
0.537	-0.00296321
0.524	-0.00287088
0.511	-0.00277886
0.498	-0.00268689
0.485	-0.00259586
0.472	-0.00250487
0.459	-0.00241330
0.446	-0.00232329
0.433	-0.00223183
0.42	-0.00214086
0.407	-0.00205059
0.394	-0.00196083
0.381	-0.00187046
0.368	-0.00178110
0.355	-0.00169159
0.342	-0.00160158
0.329	-0.00151258
0.316	-0.00142397
0.303	-0.00133587
0.29	-0.00124741
0.277	-0.00115965
0.264	-0.00107075
0.251	-0.00098972
0.238	-0.00089953
0.225	-0.00081107
0.212	-0.00072311
0.199	-0.00063489
0.186	-0.00054784
0.173	-0.00045975
0.16	-0.00037255
0.147	-0.00028571
0.134	-0.00019928
0.121	-0.00011262
0.108	-0.00003230
0.09500000	0.00005655
0.08200000	0.00013396
0.06900000	0.00022287
0.05600000	0.00031039
0.04300000	0.00039713
0.03000000	0.00048347
0.01700000	0.00056982
0.00400000	0.00065613
-0.00900000	0.00074177
-0.02200000	0.00082770
-0.03500000	0.00091352
-0.04800000	0.00099939
-0.06100000	0.00107546
-0.07400000	0.00116385
-0.08700000	0.00125060
-0.1	0.00133685