File: Data/IV_data/20240619 - Freezing PVSK #1 - JV Data/FZ_005-4_ITO+SnO2+PVSK+PEAI+Spiro+Carbon (Dry Ice)  2024-06-19 10-56-30.txt
Device Id	Operator	Recipe
FZ_005-4_ITO+SnO2+PVSK+PEAI+Spiro+Carbon (Dry Ice) 	Unknown	Jacob PVSKT _ 0.08cm2 (nature recipe).IV

Sample Area	Irradiance	Pre sweep delay	Bias Direction	Max Reverse Bias	Max Forward Bias	Num Sweep Points	Dwell Time	Current Limit	PVIV 10A I-AMP	Average	Dark Current	Rshunt V-Lo	Rshunt V-Hi
0.080000	1.0000	0.5000	0	-0.1000	1.2000	101	10	130	0	1	0	-0.6000	-0.1000

Voc V	Isc A	Jsc mA/cm2	Imax A	Vmax V	Pmax mW	Fill Factor	Efficiency	R at Voc	R at Isc	Power W	RShunt ohms	Cell Temp start	Cell Temp end	Exposure	Time	Date
1.04142	0.00148021	18.5026	0.00101908	0.75431	0.7687	49.8667	9.6087	165.6	4693.037	0.00118549	NaN	NaN	NaN	8.562	10:56:30	06/19/2024

Vmeas	Imeas
1.2	-0.00112066
1.187	-0.00103619
1.174	-0.00094916
1.161	-0.00085100
1.148	-0.00075016
1.135	-0.00064923
1.122	-0.00054898
1.109	-0.00045076
1.096	-0.00035482
1.083	-0.00026144
1.07	-0.00017075
1.057	-0.00008466
1.044	-0.00000308
1.031	0.00007342
1.018	0.00014529
1.005	0.00021959
0.992	0.00028916
0.979	0.00035496
0.966	0.00041721
0.953	0.00047538
0.94	0.00052971
0.927	0.00058093
0.914	0.00062901
0.901	0.00067381
0.888	0.00071577
0.875	0.00075526
0.862	0.00079227
0.849	0.00082665
0.836	0.00085926
0.823	0.00088980
0.81	0.00091847
0.797	0.00094610
0.784	0.00097173
0.771	0.00099628
0.758	0.00101913
0.745	0.00104130
0.732	0.00105018
0.719	0.00104780
0.706	0.00107323
0.693	0.00109525
0.68	0.00111492
0.667	0.00113371
0.654	0.00115100
0.641	0.00116761
0.628	0.00118272
0.615	0.00119754
0.602	0.00121187
0.589	0.00122447
0.576	0.00123780
0.563	0.00124999
0.55	0.00126067
0.537	0.00127180
0.524	0.00128283
0.511	0.00129228
0.498	0.00130268
0.485	0.00131163
0.472	0.00132095
0.459	0.00132881
0.446	0.00133706
0.433	0.00134483
0.42	0.00135221
0.407	0.00135922
0.394	0.00136639
0.381	0.00137293
0.368	0.00137857
0.355	0.00138413
0.342	0.00139054
0.329	0.00139536
0.316	0.00140053
0.303	0.00140619
0.29	0.00141103
0.277	0.00141544
0.264	0.00142012
0.251	0.00142406
0.238	0.00142861
0.225	0.00143256
0.212	0.00143672
0.199	0.00144003
0.186	0.00144349
0.173	0.00144692
0.16	0.00145049
0.147	0.00145310
0.134	0.00145615
0.121	0.00145914
0.108	0.00146224
0.09500000	0.00146448
0.08200000	0.00146677
0.06900000	0.00146858
0.05600000	0.00147118
0.04300000	0.00147391
0.03000000	0.00147599
0.01700000	0.00147797
0.00400000	0.00147999
-0.00900000	0.00148434
-0.02200000	0.00148451
-0.03500000	0.00148592
-0.04800000	0.00148775
-0.06100000	0.00148915
-0.07400000	0.00149084
-0.08700000	0.00149260
-0.1	0.00149422