File: Data/IV_data/20240619 - Freezing PVSK #1 - JV Data/FZ_003-1_ITO+SnO2+PVSK+PEAI+Spiro+Carbon (RT)  2024-06-19 10-18-25.txt
Device Id	Operator	Recipe
FZ_003-1_ITO+SnO2+PVSK+PEAI+Spiro+Carbon (RT) 	Unknown	Jacob PVSKT _ 0.08cm2 (nature recipe).IV

Sample Area	Irradiance	Pre sweep delay	Bias Direction	Max Reverse Bias	Max Forward Bias	Num Sweep Points	Dwell Time	Current Limit	PVIV 10A I-AMP	Average	Dark Current	Rshunt V-Lo	Rshunt V-Hi
0.080000	1.0000	0.5000	0	-0.1000	1.2000	101	10	130	0	1	0	-0.6000	-0.1000

Voc V	Isc A	Jsc mA/cm2	Imax A	Vmax V	Pmax mW	Fill Factor	Efficiency	R at Voc	R at Isc	Power W	RShunt ohms	Cell Temp start	Cell Temp end	Exposure	Time	Date
1.06544	0.00149061	18.6327	0.00098860	0.71993	0.711723	44.8142	8.8965	212.864	3047.141	0.00114499	NaN	NaN	NaN	8.297	10:18:25	06/19/2024

Vmeas	Imeas
1.2	-0.00067790
1.187	-0.00062009
1.174	-0.00055482
1.161	-0.00048637
1.148	-0.00041639
1.135	-0.00034620
1.122	-0.00027629
1.109	-0.00020766
1.096	-0.00014049
1.083	-0.00007482
1.07	-0.00001132
1.057	0.00005040
1.044	0.00010673
1.031	0.00016452
1.018	0.00021990
1.005	0.00027296
0.992	0.00032382
0.979	0.00037251
0.966	0.00041915
0.953	0.00046353
0.94	0.00050571
0.927	0.00054597
0.914	0.00058420
0.901	0.00062075
0.888	0.00065546
0.875	0.00068877
0.862	0.00072022
0.849	0.00075030
0.836	0.00077907
0.823	0.00080688
0.81	0.00083328
0.797	0.00085870
0.784	0.00088294
0.771	0.00090637
0.758	0.00092885
0.745	0.00095023
0.732	0.00097104
0.719	0.00099120
0.706	0.00101037
0.693	0.00102906
0.68	0.00104715
0.667	0.00104140
0.654	0.00106094
0.641	0.00107943
0.628	0.00109694
0.615	0.00111341
0.602	0.00112905
0.589	0.00114443
0.576	0.00115876
0.563	0.00117289
0.55	0.00118641
0.537	0.00119967
0.524	0.00121205
0.511	0.00122423
0.498	0.00123638
0.485	0.00124737
0.472	0.00125817
0.459	0.00126887
0.446	0.00127923
0.433	0.00128908
0.42	0.00129817
0.407	0.00130750
0.394	0.00131634
0.381	0.00132520
0.368	0.00133364
0.355	0.00134183
0.342	0.00134998
0.329	0.00135771
0.316	0.00136503
0.303	0.00137236
0.29	0.00137936
0.277	0.00138587
0.264	0.00139268
0.251	0.00139916
0.238	0.00140551
0.225	0.00141127
0.212	0.00141730
0.199	0.00142303
0.186	0.00142837
0.173	0.00143411
0.16	0.00143940
0.147	0.00144414
0.134	0.00144893
0.121	0.00145348
0.108	0.00145864
0.09500000	0.00146306
0.08200000	0.00146747
0.06900000	0.00147177
0.05600000	0.00147575
0.04300000	0.00147965
0.03000000	0.00148368
0.01700000	0.00148733
0.00400000	0.00149105
-0.00900000	0.00149500
-0.02200000	0.00149860
-0.03500000	0.00150123
-0.04800000	0.00150473
-0.06100000	0.00150819
-0.07400000	0.00151145
-0.08700000	0.00151462
-0.1	0.00151738