File: Data/IV_data/20240619 - Freezing PVSK #1 - JV Data/FZ_006-3_ITO+SnO2+PVSK+PEAI+Spiro+Carbon (Dry Ice)  2024-06-19 11-08-20.txt
Device Id	Operator	Recipe
FZ_006-3_ITO+SnO2+PVSK+PEAI+Spiro+Carbon (Dry Ice) 	Unknown	Jacob PVSKT _ 0.08cm2 (nature recipe).IV

Sample Area	Irradiance	Pre sweep delay	Bias Direction	Max Reverse Bias	Max Forward Bias	Num Sweep Points	Dwell Time	Current Limit	PVIV 10A I-AMP	Average	Dark Current	Rshunt V-Lo	Rshunt V-Hi
0.080000	1.0000	0.5000	0	-0.1000	1.2000	101	10	130	0	1	0	-0.6000	-0.1000

Voc V	Isc A	Jsc mA/cm2	Imax A	Vmax V	Pmax mW	Fill Factor	Efficiency	R at Voc	R at Isc	Power W	RShunt ohms	Cell Temp start	Cell Temp end	Exposure	Time	Date
0.822226	0.00133886	16.7357	0.00082116	0.491241	0.403389	36.6436	5.0424	316.449	1529.504	0.00070246	NaN	NaN	NaN	8.562	11:08:20	06/19/2024

Vmeas	Imeas
1.2	-0.00106841
1.187	-0.00102393
1.174	-0.00098234
1.161	-0.00093207
1.148	-0.00088206
1.135	-0.00083542
1.122	-0.00078399
1.109	-0.00073585
1.096	-0.00069448
1.083	-0.00065408
1.07	-0.00061884
1.057	-0.00058531
1.044	-0.00056110
1.031	-0.00053370
1.018	-0.00050169
1.005	-0.00047867
0.992	-0.00045555
0.979	-0.00042825
0.966	-0.00040692
0.953	-0.00037679
0.94	-0.00034197
0.927	-0.00031010
0.914	-0.00027742
0.901	-0.00024659
0.888	-0.00020555
0.875	-0.00016667
0.862	-0.00012612
0.849	-0.00008831
0.836	-0.00004213
0.823	-0.00001234
0.81	0.00004149
0.797	0.00008698
0.784	0.00011648
0.771	0.00016325
0.758	0.00020341
0.745	0.00024428
0.732	0.00028311
0.719	0.00031810
0.706	0.00035583
0.693	0.00039215
0.68	0.00042541
0.667	0.00045668
0.654	0.00048889
0.641	0.00051820
0.628	0.00054854
0.615	0.00057760
0.602	0.00060597
0.589	0.00063392
0.576	0.00066426
0.563	0.00069067
0.55	0.00071536
0.537	0.00073981
0.524	0.00076356
0.511	0.00078695
0.498	0.00080953
0.485	0.00083194
0.472	0.00085251
0.459	0.00087381
0.446	0.00089423
0.433	0.00091303
0.42	0.00093172
0.407	0.00094998
0.394	0.00096837
0.381	0.00098537
0.368	0.00100304
0.355	0.00102171
0.342	0.00103726
0.329	0.00105019
0.316	0.00106576
0.303	0.00107755
0.29	0.00109167
0.277	0.00110499
0.264	0.00112015
0.251	0.00113360
0.238	0.00115053
0.225	0.00116381
0.212	0.00117673
0.199	0.00118696
0.186	0.00119981
0.173	0.00121075
0.16	0.00122167
0.147	0.00123360
0.134	0.00124324
0.121	0.00125356
0.108	0.00126407
0.09500000	0.00127381
0.08200000	0.00128311
0.06900000	0.00129269
0.05600000	0.00130443
0.04300000	0.00131211
0.03000000	0.00132074
0.01700000	0.00132998
0.00400000	0.00133824
-0.00900000	0.00134842
-0.02200000	0.00135656
-0.03500000	0.00136504
-0.04800000	0.00137194
-0.06100000	0.00137884
-0.07400000	0.00138555
-0.08700000	0.00139215
-0.1	0.00139846