File: Data/IV_data/20240619 - Freezing PVSK #1 - JV Data/FZ_005-6_ITO+SnO2+PVSK+PEAI+Spiro+Carbon (Dry Ice)  2024-06-19 11-00-06.txt
Device Id	Operator	Recipe
FZ_005-6_ITO+SnO2+PVSK+PEAI+Spiro+Carbon (Dry Ice) 	Unknown	Jacob PVSKT _ 0.08cm2 (nature recipe).IV

Sample Area	Irradiance	Pre sweep delay	Bias Direction	Max Reverse Bias	Max Forward Bias	Num Sweep Points	Dwell Time	Current Limit	PVIV 10A I-AMP	Average	Dark Current	Rshunt V-Lo	Rshunt V-Hi
0.080000	1.0000	0.5000	0	-0.1000	1.2000	101	10	130	0	1	0	-0.6000	-0.1000

Voc V	Isc A	Jsc mA/cm2	Imax A	Vmax V	Pmax mW	Fill Factor	Efficiency	R at Voc	R at Isc	Power W	RShunt ohms	Cell Temp start	Cell Temp end	Exposure	Time	Date
1.04731	0.00153276	19.1595	0.00101609	0.76969	0.782078	48.7193	9.7760	162.063	3889.905	0.00122021	NaN	NaN	NaN	8.359	11:00:06	06/19/2024

Vmeas	Imeas
1.2	-0.00108213
1.187	-0.00101054
1.174	-0.00091529
1.161	-0.00081614
1.148	-0.00071554
1.135	-0.00061449
1.122	-0.00051487
1.109	-0.00041670
1.096	-0.00032043
1.083	-0.00022706
1.07	-0.00013618
1.057	-0.00005169
1.044	0.00003311
1.031	0.00010357
1.018	0.00018184
1.005	0.00025540
0.992	0.00032463
0.979	0.00039024
0.966	0.00045203
0.953	0.00050909
0.94	0.00056084
0.927	0.00061142
0.914	0.00065866
0.901	0.00070251
0.888	0.00074364
0.875	0.00078226
0.862	0.00081804
0.849	0.00085255
0.836	0.00088461
0.823	0.00091460
0.81	0.00094316
0.797	0.00097043
0.784	0.00099617
0.771	0.00102031
0.758	0.00104340
0.745	0.00105018
0.732	0.00104012
0.719	0.00106847
0.706	0.00108987
0.693	0.00111338
0.68	0.00113457
0.667	0.00115411
0.654	0.00117235
0.641	0.00118963
0.628	0.00120442
0.615	0.00121999
0.602	0.00123510
0.589	0.00124965
0.576	0.00126418
0.563	0.00127707
0.55	0.00128878
0.537	0.00130078
0.524	0.00131213
0.511	0.00132341
0.498	0.00133331
0.485	0.00134236
0.472	0.00135182
0.459	0.00136134
0.446	0.00137014
0.433	0.00137778
0.42	0.00138629
0.407	0.00139348
0.394	0.00140084
0.381	0.00140798
0.368	0.00141519
0.355	0.00142138
0.342	0.00142797
0.329	0.00143419
0.316	0.00143990
0.303	0.00144521
0.29	0.00145025
0.277	0.00145615
0.264	0.00146143
0.251	0.00146598
0.238	0.00147034
0.225	0.00147535
0.212	0.00147975
0.199	0.00148446
0.186	0.00148854
0.173	0.00149207
0.16	0.00149582
0.147	0.00149893
0.134	0.00150242
0.121	0.00150568
0.108	0.00150945
0.09500000	0.00151240
0.08200000	0.00151575
0.06900000	0.00151871
0.05600000	0.00152131
0.04300000	0.00152447
0.03000000	0.00152655
0.01700000	0.00152939
0.00400000	0.00153183
-0.00900000	0.00153913
-0.02200000	0.00153877
-0.03500000	0.00154032
-0.04800000	0.00154259
-0.06100000	0.00154439
-0.07400000	0.00154697
-0.08700000	0.00154857
-0.1	0.00155038