File: Data/IV_data/20240619 - Freezing PVSK #1 - JV Data/FZ_009-3_ITO+SnO2+PVSK+PEAI+Spiro+Carbon (LN2)  2024-06-19 11-30-33.txt
Device Id	Operator	Recipe
FZ_009-3_ITO+SnO2+PVSK+PEAI+Spiro+Carbon (LN2) 	Unknown	Jacob PVSKT _ 0.08cm2 (nature recipe).IV

Sample Area	Irradiance	Pre sweep delay	Bias Direction	Max Reverse Bias	Max Forward Bias	Num Sweep Points	Dwell Time	Current Limit	PVIV 10A I-AMP	Average	Dark Current	Rshunt V-Lo	Rshunt V-Hi
0.080000	1.0000	0.5000	0	-0.1000	1.2000	101	10	130	0	1	0	-0.6000	-0.1000

Voc V	Isc A	Jsc mA/cm2	Imax A	Vmax V	Pmax mW	Fill Factor	Efficiency	R at Voc	R at Isc	Power W	RShunt ohms	Cell Temp start	Cell Temp end	Exposure	Time	Date
1.02364	0.00097814	12.2268	0.00077486	0.785983	0.609029	60.8260	7.6129	140.205	11126.178	0.00084421	NaN	NaN	NaN	8.203	11:30:33	06/19/2024

Vmeas	Imeas
1.2	-0.00187552
1.187	-0.00171750
1.174	-0.00155586
1.161	-0.00139467
1.148	-0.00123456
1.135	-0.00107759
1.122	-0.00092259
1.109	-0.00077804
1.096	-0.00063715
1.083	-0.00050235
1.07	-0.00037520
1.057	-0.00025481
1.044	-0.00014183
1.031	-0.00004388
1.018	0.00005461
1.005	0.00012766
0.992	0.00021106
0.979	0.00028497
0.966	0.00035112
0.953	0.00040990
0.94	0.00046292
0.927	0.00050942
0.914	0.00054993
0.901	0.00058620
0.888	0.00061834
0.875	0.00064657
0.862	0.00067259
0.849	0.00069479
0.836	0.00071475
0.823	0.00073267
0.81	0.00074897
0.797	0.00076339
0.784	0.00077672
0.771	0.00078910
0.758	0.00079987
0.745	0.00081009
0.732	0.00081959
0.719	0.00082787
0.706	0.00083602
0.693	0.00084341
0.68	0.00085012
0.667	0.00085660
0.654	0.00086284
0.641	0.00086832
0.628	0.00087355
0.615	0.00087869
0.602	0.00088348
0.589	0.00088767
0.576	0.00089221
0.563	0.00089625
0.55	0.00089997
0.537	0.00090374
0.524	0.00090703
0.511	0.00091031
0.498	0.00091377
0.485	0.00091648
0.472	0.00091981
0.459	0.00092245
0.446	0.00092528
0.433	0.00092794
0.42	0.00093012
0.407	0.00093274
0.394	0.00093482
0.381	0.00093703
0.368	0.00093912
0.355	0.00094130
0.342	0.00094310
0.329	0.00094434
0.316	0.00094647
0.303	0.00094801
0.29	0.00095011
0.277	0.00095162
0.264	0.00095363
0.251	0.00095533
0.238	0.00095670
0.225	0.00095765
0.212	0.00095920
0.199	0.00096095
0.186	0.00096229
0.173	0.00096361
0.16	0.00096509
0.147	0.00096612
0.134	0.00096725
0.121	0.00096866
0.108	0.00096933
0.09500000	0.00097052
0.08200000	0.00097177
0.06900000	0.00097307
0.05600000	0.00097410
0.04300000	0.00097484
0.03000000	0.00097598
0.01700000	0.00097718
0.00400000	0.00097812
-0.00900000	0.00097967
-0.02200000	0.00098020
-0.03500000	0.00098086
-0.04800000	0.00098154
-0.06100000	0.00098249
-0.07400000	0.00098336
-0.08700000	0.00098434
-0.1	0.00098497