File: Data/IV_data/20240619 - Freezing PVSK #1 - JV Data/FZ_003-4_ITO+SnO2+PVSK+PEAI+Spiro+Carbon (RT)  2024-06-19 10-21-12.txt
Device Id	Operator	Recipe
FZ_003-4_ITO+SnO2+PVSK+PEAI+Spiro+Carbon (RT) 	Unknown	Jacob PVSKT _ 0.08cm2 (nature recipe).IV

Sample Area	Irradiance	Pre sweep delay	Bias Direction	Max Reverse Bias	Max Forward Bias	Num Sweep Points	Dwell Time	Current Limit	PVIV 10A I-AMP	Average	Dark Current	Rshunt V-Lo	Rshunt V-Hi
0.080000	1.0000	0.5000	0	-0.1000	1.2000	101	10	130	0	1	0	-0.6000	-0.1000

Voc V	Isc A	Jsc mA/cm2	Imax A	Vmax V	Pmax mW	Fill Factor	Efficiency	R at Voc	R at Isc	Power W	RShunt ohms	Cell Temp start	Cell Temp end	Exposure	Time	Date
1.08983	0.00167430	20.9288	0.00132513	0.715601	0.948266	51.9682	11.8533	163.503	7291.815	0.00143111	NaN	NaN	NaN	8.297	10:21:12	06/19/2024

Vmeas	Imeas
1.2	-0.00078479
1.187	-0.00067645
1.174	-0.00057166
1.161	-0.00047160
1.148	-0.00037579
1.135	-0.00028377
1.122	-0.00019524
1.109	-0.00011017
1.096	-0.00002856
1.083	0.00005123
1.07	0.00012423
1.057	0.00020047
1.044	0.00027297
1.031	0.00034251
1.018	0.00040950
1.005	0.00047393
0.992	0.00053561
0.979	0.00059473
0.966	0.00065183
0.953	0.00070599
0.94	0.00075804
0.927	0.00080759
0.914	0.00085482
0.901	0.00089968
0.888	0.00094283
0.875	0.00098379
0.862	0.00102267
0.849	0.00105018
0.836	0.00103747
0.823	0.00107989
0.81	0.00111784
0.797	0.00115302
0.784	0.00118553
0.771	0.00121582
0.758	0.00124374
0.745	0.00127010
0.732	0.00129470
0.719	0.00131797
0.706	0.00133939
0.693	0.00135991
0.68	0.00137768
0.667	0.00139575
0.654	0.00141211
0.641	0.00142777
0.628	0.00144272
0.615	0.00145498
0.602	0.00146807
0.589	0.00148048
0.576	0.00149199
0.563	0.00150298
0.55	0.00151294
0.537	0.00152269
0.524	0.00153173
0.511	0.00154001
0.498	0.00154811
0.485	0.00155584
0.472	0.00156277
0.459	0.00156922
0.446	0.00157579
0.433	0.00158175
0.42	0.00158648
0.407	0.00159302
0.394	0.00159774
0.381	0.00160273
0.368	0.00160714
0.355	0.00161143
0.342	0.00161552
0.329	0.00161997
0.316	0.00162353
0.303	0.00162635
0.29	0.00162990
0.277	0.00163331
0.264	0.00163596
0.251	0.00163911
0.238	0.00164170
0.225	0.00164473
0.212	0.00164716
0.199	0.00164922
0.186	0.00165158
0.173	0.00165369
0.16	0.00165554
0.147	0.00165801
0.134	0.00165992
0.121	0.00166129
0.108	0.00166307
0.09500000	0.00166446
0.08200000	0.00166580
0.06900000	0.00166732
0.05600000	0.00166901
0.04300000	0.00167001
0.03000000	0.00167164
0.01700000	0.00167286
0.00400000	0.00167410
-0.00900000	0.00167665
-0.02200000	0.00167672
-0.03500000	0.00167820
-0.04800000	0.00167852
-0.06100000	0.00167963
-0.07400000	0.00168049
-0.08700000	0.00168133
-0.1	0.00168237