File: Data/IV_data/20240619 - Freezing PVSK #1 - JV Data/FZ_007-4_ITO+SnO2+PVSK+PEAI+Spiro+Carbon (LN2)  2024-06-19 11-18-31.txt
Device Id	Operator	Recipe
FZ_007-4_ITO+SnO2+PVSK+PEAI+Spiro+Carbon (LN2) 	Unknown	Jacob PVSKT _ 0.08cm2 (nature recipe).IV

Sample Area	Irradiance	Pre sweep delay	Bias Direction	Max Reverse Bias	Max Forward Bias	Num Sweep Points	Dwell Time	Current Limit	PVIV 10A I-AMP	Average	Dark Current	Rshunt V-Lo	Rshunt V-Hi
0.080000	1.0000	0.5000	0	-0.1000	1.2000	101	10	130	0	1	0	-0.6000	-0.1000

Voc V	Isc A	Jsc mA/cm2	Imax A	Vmax V	Pmax mW	Fill Factor	Efficiency	R at Voc	R at Isc	Power W	RShunt ohms	Cell Temp start	Cell Temp end	Exposure	Time	Date
1.01039	0.00106989	13.3736	0.00089310	0.774436	0.691648	63.9822	8.6456	130.638	15673.321	0.00093258	NaN	NaN	NaN	8.359	11:18:31	06/19/2024

Vmeas	Imeas
1.2	-0.00224125
1.187	-0.00205191
1.174	-0.00186184
1.161	-0.00167427
1.148	-0.00149046
1.135	-0.00131236
1.122	-0.00114020
1.109	-0.00097120
1.096	-0.00081561
1.083	-0.00066715
1.07	-0.00052689
1.057	-0.00039451
1.044	-0.00027063
1.031	-0.00015481
1.018	-0.00005116
1.005	0.00005204
0.992	0.00013726
0.979	0.00022879
0.966	0.00031135
0.953	0.00038623
0.94	0.00045438
0.927	0.00051592
0.914	0.00057134
0.901	0.00062102
0.888	0.00066531
0.875	0.00070516
0.862	0.00074031
0.849	0.00077152
0.836	0.00079813
0.823	0.00082339
0.81	0.00084504
0.797	0.00086447
0.784	0.00088163
0.771	0.00089697
0.758	0.00091090
0.745	0.00092311
0.732	0.00093407
0.719	0.00094385
0.706	0.00095289
0.693	0.00096096
0.68	0.00096821
0.667	0.00097471
0.654	0.00098056
0.641	0.00098622
0.628	0.00099153
0.615	0.00099663
0.602	0.00100100
0.589	0.00100492
0.576	0.00100863
0.563	0.00101194
0.55	0.00101536
0.537	0.00101866
0.524	0.00102189
0.511	0.00102438
0.498	0.00102686
0.485	0.00102919
0.472	0.00103163
0.459	0.00103363
0.446	0.00103580
0.433	0.00103774
0.42	0.00103916
0.407	0.00104100
0.394	0.00104275
0.381	0.00104433
0.368	0.00104583
0.355	0.00104752
0.342	0.00104882
0.329	0.00104983
0.316	0.00105019
0.303	0.00105019
0.29	0.00104741
0.277	0.00104957
0.264	0.00105161
0.251	0.00105271
0.238	0.00105405
0.225	0.00105565
0.212	0.00105673
0.199	0.00105819
0.186	0.00105901
0.173	0.00106018
0.16	0.00106115
0.147	0.00106250
0.134	0.00106312
0.121	0.00106365
0.108	0.00106443
0.09500000	0.00106519
0.08200000	0.00106609
0.06900000	0.00106679
0.05600000	0.00106705
0.04300000	0.00106780
0.03000000	0.00106838
0.01700000	0.00106885
0.00400000	0.00106992
-0.00900000	0.00107033
-0.02200000	0.00107109
-0.03500000	0.00107157
-0.04800000	0.00107224
-0.06100000	0.00107270
-0.07400000	0.00107304
-0.08700000	0.00107371
-0.1	0.00107431