File: Data/IV_data/20240619 - Freezing PVSK #1 - JV Data/FZ_001-1_ITO+SnO2+PVSK+PEAI+Spiro+Carbon (RT)  2024-06-19 10-02-25.txt
Device Id	Operator	Recipe
FZ_001-1_ITO+SnO2+PVSK+PEAI+Spiro+Carbon (RT) 	Unknown	Jacob PVSKT _ 0.08cm2 (nature recipe).IV

Sample Area	Irradiance	Pre sweep delay	Bias Direction	Max Reverse Bias	Max Forward Bias	Num Sweep Points	Dwell Time	Current Limit	PVIV 10A I-AMP	Average	Dark Current	Rshunt V-Lo	Rshunt V-Hi
0.080000	1.0000	0.5000	0	-0.1000	1.2000	101	10	130	0	1	0	-0.6000	-0.1000

Voc V	Isc A	Jsc mA/cm2	Imax A	Vmax V	Pmax mW	Fill Factor	Efficiency	R at Voc	R at Isc	Power W	RShunt ohms	Cell Temp start	Cell Temp end	Exposure	Time	Date
0.278531	0.00081626	10.2033	0.00041485	0.143821	0.05966473	26.2431	0.7458	310.113	387.383	0.00011736	NaN	NaN	NaN	8.609	10:02:25	06/19/2024

Vmeas	Imeas
1.2	-0.00485693
1.187	-0.00468392
1.174	-0.00458021
1.161	-0.00455008
1.148	-0.00433351
1.135	-0.00419458
1.122	-0.00407208
1.109	-0.00393274
1.096	-0.00378537
1.083	-0.00368077
1.07	-0.00361466
1.057	-0.00350286
1.044	-0.00340491
1.031	-0.00329241
1.018	-0.00321410
1.005	-0.00314520
0.992	-0.00306108
0.979	-0.00297391
0.966	-0.00289738
0.953	-0.00281546
0.94	-0.00273375
0.927	-0.00266052
0.914	-0.00258714
0.901	-0.00250649
0.888	-0.00243824
0.875	-0.00236805
0.862	-0.00230258
0.849	-0.00223875
0.836	-0.00217857
0.823	-0.00211108
0.81	-0.00205439
0.797	-0.00199169
0.784	-0.00192612
0.771	-0.00186154
0.758	-0.00180538
0.745	-0.00175151
0.732	-0.00168973
0.719	-0.00163532
0.706	-0.00157947
0.693	-0.00152287
0.68	-0.00146638
0.667	-0.00141026
0.654	-0.00135594
0.641	-0.00130246
0.628	-0.00124636
0.615	-0.00119280
0.602	-0.00113976
0.589	-0.00108825
0.576	-0.00103952
0.563	-0.00099065
0.55	-0.00093854
0.537	-0.00088808
0.524	-0.00083801
0.511	-0.00078965
0.498	-0.00074175
0.485	-0.00069462
0.472	-0.00064769
0.459	-0.00059984
0.446	-0.00055324
0.433	-0.00050818
0.42	-0.00046464
0.407	-0.00041970
0.394	-0.00037450
0.381	-0.00033150
0.368	-0.00028720
0.355	-0.00024325
0.342	-0.00020197
0.329	-0.00016010
0.316	-0.00011615
0.303	-0.00007972
0.29	-0.00003676
0.277	0.00000594
0.264	0.00004751
0.251	0.00008771
0.238	0.00012457
0.225	0.00016555
0.212	0.00020611
0.199	0.00024662
0.186	0.00028981
0.173	0.00032943
0.16	0.00036802
0.147	0.00040569
0.134	0.00044326
0.121	0.00048106
0.108	0.00051909
0.09500000	0.00055702
0.08200000	0.00059424
0.06900000	0.00063058
0.05600000	0.00066562
0.04300000	0.00070127
0.03000000	0.00073609
0.01700000	0.00077209
0.00400000	0.00080651
-0.00900000	0.00083921
-0.02200000	0.00087091
-0.03500000	0.00090269
-0.04800000	0.00093375
-0.06100000	0.00096527
-0.07400000	0.00099617
-0.08700000	0.00102703
-0.1	0.00105034