File: Data/IV_data/20240619 - Freezing PVSK #1 - JV Data/FZ_001-3_ITO+SnO2+PVSK+PEAI+Spiro+Carbon (RT)  2024-06-19 10-03-59.txt
Device Id	Operator	Recipe
FZ_001-3_ITO+SnO2+PVSK+PEAI+Spiro+Carbon (RT) 	Unknown	Jacob PVSKT _ 0.08cm2 (nature recipe).IV

Sample Area	Irradiance	Pre sweep delay	Bias Direction	Max Reverse Bias	Max Forward Bias	Num Sweep Points	Dwell Time	Current Limit	PVIV 10A I-AMP	Average	Dark Current	Rshunt V-Lo	Rshunt V-Hi
0.080000	1.0000	0.5000	0	-0.1000	1.2000	101	10	130	0	1	0	-0.6000	-0.1000

Voc V	Isc A	Jsc mA/cm2	Imax A	Vmax V	Pmax mW	Fill Factor	Efficiency	R at Voc	R at Isc	Power W	RShunt ohms	Cell Temp start	Cell Temp end	Exposure	Time	Date
0.183262	0.00065917	8.23967	0.00033218	0.09216815	0.03061613	25.3442	0.3827	271.802	284.103	0.00006097	NaN	NaN	NaN	8.422	10:03:59	06/19/2024

Vmeas	Imeas
1.2	-0.00528923
1.187	-0.00506096
1.174	-0.00494054
1.161	-0.00485097
1.148	-0.00476678
1.135	-0.00468645
1.122	-0.00459380
1.109	-0.00450651
1.096	-0.00441933
1.083	-0.00433237
1.07	-0.00424657
1.057	-0.00416953
1.044	-0.00409139
1.031	-0.00401045
1.018	-0.00392176
1.005	-0.00385030
0.992	-0.00378389
0.979	-0.00378973
0.966	-0.00378241
0.953	-0.00367336
0.94	-0.00357821
0.927	-0.00346448
0.914	-0.00338729
0.901	-0.00330453
0.888	-0.00324881
0.875	-0.00317448
0.862	-0.00309236
0.849	-0.00301734
0.836	-0.00295686
0.823	-0.00287989
0.81	-0.00279529
0.797	-0.00273593
0.784	-0.00265763
0.771	-0.00259564
0.758	-0.00253101
0.745	-0.00246023
0.732	-0.00239452
0.719	-0.00232575
0.706	-0.00226025
0.693	-0.00219513
0.68	-0.00212751
0.667	-0.00206165
0.654	-0.00199699
0.641	-0.00193669
0.628	-0.00187076
0.615	-0.00180821
0.602	-0.00174863
0.589	-0.00168754
0.576	-0.00162784
0.563	-0.00156966
0.55	-0.00150914
0.537	-0.00144595
0.524	-0.00138488
0.511	-0.00132734
0.498	-0.00126929
0.485	-0.00121271
0.472	-0.00115590
0.459	-0.00109839
0.446	-0.00104117
0.433	-0.00099066
0.42	-0.00093543
0.407	-0.00087866
0.394	-0.00082675
0.381	-0.00077191
0.368	-0.00071784
0.355	-0.00066407
0.342	-0.00061166
0.329	-0.00055910
0.316	-0.00050919
0.303	-0.00045724
0.29	-0.00040717
0.277	-0.00035601
0.264	-0.00030439
0.251	-0.00025305
0.238	-0.00020283
0.225	-0.00015368
0.212	-0.00010386
0.199	-0.00005710
0.186	-0.00001160
0.173	0.00003848
0.16	0.00008708
0.147	0.00013220
0.134	0.00018053
0.121	0.00022835
0.108	0.00027508
0.09500000	0.00032197
0.08200000	0.00036876
0.06900000	0.00041534
0.05600000	0.00046230
0.04300000	0.00050788
0.03000000	0.00055376
0.01700000	0.00059935
0.00400000	0.00064509
-0.00900000	0.00069085
-0.02200000	0.00073625
-0.03500000	0.00078150
-0.04800000	0.00082696
-0.06100000	0.00087266
-0.07400000	0.00091849
-0.08700000	0.00096415
-0.1	0.00101001