File: Data/IV_data/20240619 - Freezing PVSK #1 - JV Data/FZ_008-1_ITO+SnO2+PVSK+PEAI+Spiro+Carbon (LN2)  2024-06-19 11-20-30.txt
Device Id	Operator	Recipe
FZ_008-1_ITO+SnO2+PVSK+PEAI+Spiro+Carbon (LN2) 	Unknown	Jacob PVSKT _ 0.08cm2 (nature recipe).IV

Sample Area	Irradiance	Pre sweep delay	Bias Direction	Max Reverse Bias	Max Forward Bias	Num Sweep Points	Dwell Time	Current Limit	PVIV 10A I-AMP	Average	Dark Current	Rshunt V-Lo	Rshunt V-Hi
0.080000	1.0000	0.5000	0	-0.1000	1.2000	101	10	130	0	1	0	-0.6000	-0.1000

Voc V	Isc A	Jsc mA/cm2	Imax A	Vmax V	Pmax mW	Fill Factor	Efficiency	R at Voc	R at Isc	Power W	RShunt ohms	Cell Temp start	Cell Temp end	Exposure	Time	Date
0.37346	0.00086215	10.7769	0.00044294	0.189993	0.08415547	26.1368	1.0519	386.806	469.854	0.00016561	NaN	NaN	NaN	8.359	11:20:30	06/19/2024

Vmeas	Imeas
1.2	-0.00359585
1.187	-0.00346990
1.174	-0.00334924
1.161	-0.00324995
1.148	-0.00314294
1.135	-0.00305946
1.122	-0.00297857
1.109	-0.00289286
1.096	-0.00279934
1.083	-0.00270493
1.07	-0.00261851
1.057	-0.00252989
1.044	-0.00245013
1.031	-0.00237288
1.018	-0.00229182
1.005	-0.00222166
0.992	-0.00214626
0.979	-0.00207592
0.966	-0.00200819
0.953	-0.00194350
0.94	-0.00187739
0.927	-0.00181447
0.914	-0.00175324
0.901	-0.00169694
0.888	-0.00164028
0.875	-0.00158547
0.862	-0.00153124
0.849	-0.00147795
0.836	-0.00142712
0.823	-0.00137421
0.81	-0.00132529
0.797	-0.00127653
0.784	-0.00122894
0.771	-0.00118269
0.758	-0.00113565
0.745	-0.00109204
0.732	-0.00104565
0.719	-0.00100539
0.706	-0.00096117
0.693	-0.00091654
0.68	-0.00087395
0.667	-0.00083180
0.654	-0.00078890
0.641	-0.00074802
0.628	-0.00070699
0.615	-0.00066704
0.602	-0.00062772
0.589	-0.00058791
0.576	-0.00054954
0.563	-0.00051125
0.55	-0.00047345
0.537	-0.00043624
0.524	-0.00039977
0.511	-0.00036289
0.498	-0.00032677
0.485	-0.00029044
0.472	-0.00025549
0.459	-0.00022044
0.446	-0.00018549
0.433	-0.00015110
0.42	-0.00011681
0.407	-0.00008753
0.394	-0.00005269
0.381	-0.00001902
0.368	0.00001469
0.355	0.00004767
0.342	0.00008076
0.329	0.00010573
0.316	0.00013921
0.303	0.00017211
0.29	0.00020422
0.277	0.00023640
0.264	0.00026774
0.251	0.00029965
0.238	0.00033091
0.225	0.00036089
0.212	0.00039185
0.199	0.00042183
0.186	0.00045216
0.173	0.00048241
0.16	0.00051200
0.147	0.00054124
0.134	0.00057019
0.121	0.00059944
0.108	0.00062836
0.09500000	0.00065718
0.08200000	0.00068569
0.06900000	0.00071387
0.05600000	0.00074179
0.04300000	0.00077024
0.03000000	0.00079871
0.01700000	0.00082596
0.00400000	0.00085365
-0.00900000	0.00088135
-0.02200000	0.00090895
-0.03500000	0.00093634
-0.04800000	0.00096409
-0.06100000	0.00099165
-0.07400000	0.00101940
-0.08700000	0.00104701
-0.1	0.00106940