File: Data/IV_data/20240619 - Freezing PVSK #1 - JV Data/FZ_005-1_ITO+SnO2+PVSK+PEAI+Spiro+Carbon (Dry Ice)  2024-06-19 10-49-51.txt
Device Id	Operator	Recipe
FZ_005-1_ITO+SnO2+PVSK+PEAI+Spiro+Carbon (Dry Ice) 	Unknown	Jacob PVSKT _ 0.08cm2 (nature recipe).IV

Sample Area	Irradiance	Pre sweep delay	Bias Direction	Max Reverse Bias	Max Forward Bias	Num Sweep Points	Dwell Time	Current Limit	PVIV 10A I-AMP	Average	Dark Current	Rshunt V-Lo	Rshunt V-Hi
0.080000	1.0000	0.5000	0	-0.1000	1.2000	101	10	130	0	1	0	-0.6000	-0.1000

Voc V	Isc A	Jsc mA/cm2	Imax A	Vmax V	Pmax mW	Fill Factor	Efficiency	R at Voc	R at Isc	Power W	RShunt ohms	Cell Temp start	Cell Temp end	Exposure	Time	Date
1.04069	0.00136454	17.0568	0.00091121	0.664693	0.605676	42.6514	7.5709	265.411	2893.389	0.00099480	NaN	NaN	NaN	8.500	10:49:51	06/19/2024

Vmeas	Imeas
1.2	-0.00068015
1.187	-0.00062572
1.174	-0.00056622
1.161	-0.00050590
1.148	-0.00044549
1.135	-0.00038583
1.122	-0.00032709
1.109	-0.00026944
1.096	-0.00021317
1.083	-0.00015815
1.07	-0.00010446
1.057	-0.00005289
1.044	-0.00000280
1.031	0.00004526
1.018	0.00009378
1.005	0.00013745
0.992	0.00018329
0.979	0.00022718
0.966	0.00026949
0.953	0.00031003
0.94	0.00034900
0.927	0.00038676
0.914	0.00042301
0.901	0.00045790
0.888	0.00049153
0.875	0.00052382
0.862	0.00055489
0.849	0.00058497
0.836	0.00061369
0.823	0.00064176
0.81	0.00066846
0.797	0.00069446
0.784	0.00071922
0.771	0.00074337
0.758	0.00076673
0.745	0.00078911
0.732	0.00081112
0.719	0.00083185
0.706	0.00085218
0.693	0.00087178
0.68	0.00089067
0.667	0.00090884
0.654	0.00092660
0.641	0.00094366
0.628	0.00096055
0.615	0.00097658
0.602	0.00099217
0.589	0.00100717
0.576	0.00102182
0.563	0.00103573
0.55	0.00104922
0.537	0.00104695
0.524	0.00106193
0.511	0.00107581
0.498	0.00108893
0.485	0.00110155
0.472	0.00111352
0.459	0.00112532
0.446	0.00113615
0.433	0.00114688
0.42	0.00115749
0.407	0.00116737
0.394	0.00117704
0.381	0.00118636
0.368	0.00119575
0.355	0.00120494
0.342	0.00121303
0.329	0.00122135
0.316	0.00122912
0.303	0.00123708
0.29	0.00124442
0.277	0.00125185
0.264	0.00125870
0.251	0.00126587
0.238	0.00127213
0.225	0.00127897
0.212	0.00128548
0.199	0.00129177
0.186	0.00129755
0.173	0.00130300
0.16	0.00130862
0.147	0.00131405
0.134	0.00131930
0.121	0.00132442
0.108	0.00132975
0.09500000	0.00133430
0.08200000	0.00133901
0.06900000	0.00134336
0.05600000	0.00134778
0.04300000	0.00135234
0.03000000	0.00135678
0.01700000	0.00136056
0.00400000	0.00136476
-0.00900000	0.00137073
-0.02200000	0.00137382
-0.03500000	0.00137697
-0.04800000	0.00138045
-0.06100000	0.00138392
-0.07400000	0.00138737
-0.08700000	0.00139026
-0.1	0.00139330