File: Data/IV_data/20240619 - Freezing PVSK #1 - JV Data/FZ_009-2_ITO+SnO2+PVSK+PEAI+Spiro+Carbon (LN2)  2024-06-19 11-29-15.txt
Device Id	Operator	Recipe
FZ_009-2_ITO+SnO2+PVSK+PEAI+Spiro+Carbon (LN2) 	Unknown	Jacob PVSKT _ 0.08cm2 (nature recipe).IV

Sample Area	Irradiance	Pre sweep delay	Bias Direction	Max Reverse Bias	Max Forward Bias	Num Sweep Points	Dwell Time	Current Limit	PVIV 10A I-AMP	Average	Dark Current	Rshunt V-Lo	Rshunt V-Hi
0.080000	1.0000	0.5000	0	-0.1000	1.2000	101	10	130	0	1	0	-0.6000	-0.1000

Voc V	Isc A	Jsc mA/cm2	Imax A	Vmax V	Pmax mW	Fill Factor	Efficiency	R at Voc	R at Isc	Power W	RShunt ohms	Cell Temp start	Cell Temp end	Exposure	Time	Date
1.02667	0.00098448	12.306	0.00073528	0.759258	0.558264	55.2336	6.9783	174.806	6952.858	0.00081345	NaN	NaN	NaN	8.422	11:29:15	06/19/2024

Vmeas	Imeas
1.2	-0.00143672
1.187	-0.00132016
1.174	-0.00119667
1.161	-0.00107113
1.148	-0.00094412
1.135	-0.00082255
1.122	-0.00070274
1.109	-0.00058705
1.096	-0.00047604
1.083	-0.00037043
1.07	-0.00027035
1.057	-0.00017589
1.044	-0.00009146
1.031	-0.00001661
1.018	0.00006222
1.005	0.00012477
0.992	0.00019299
0.979	0.00025409
0.966	0.00030949
0.953	0.00035959
0.94	0.00040488
0.927	0.00044562
0.914	0.00048250
0.901	0.00051590
0.888	0.00054617
0.875	0.00057361
0.862	0.00059859
0.849	0.00062047
0.836	0.00064163
0.823	0.00066076
0.81	0.00067855
0.797	0.00069458
0.784	0.00070962
0.771	0.00072366
0.758	0.00073667
0.745	0.00074830
0.732	0.00075981
0.719	0.00077037
0.706	0.00078038
0.693	0.00078970
0.68	0.00079866
0.667	0.00080690
0.654	0.00081469
0.641	0.00082202
0.628	0.00082916
0.615	0.00083602
0.602	0.00084238
0.589	0.00084850
0.576	0.00085463
0.563	0.00086039
0.55	0.00086544
0.537	0.00087037
0.524	0.00087554
0.511	0.00088053
0.498	0.00088505
0.485	0.00088940
0.472	0.00089349
0.459	0.00089767
0.446	0.00090177
0.433	0.00090558
0.42	0.00090901
0.407	0.00091265
0.394	0.00091624
0.381	0.00091958
0.368	0.00092282
0.355	0.00092524
0.342	0.00092834
0.329	0.00093154
0.316	0.00093422
0.303	0.00093726
0.29	0.00094004
0.277	0.00094256
0.264	0.00094506
0.251	0.00094714
0.238	0.00094963
0.225	0.00095214
0.212	0.00095453
0.199	0.00095693
0.186	0.00095873
0.173	0.00096111
0.16	0.00096300
0.147	0.00096525
0.134	0.00096685
0.121	0.00096895
0.108	0.00097053
0.09500000	0.00097259
0.08200000	0.00097444
0.06900000	0.00097600
0.05600000	0.00097721
0.04300000	0.00097906
0.03000000	0.00098038
0.01700000	0.00098251
0.00400000	0.00098389
-0.00900000	0.00098820
-0.02200000	0.00098840
-0.03500000	0.00098951
-0.04800000	0.00099047
-0.06100000	0.00099154
-0.07400000	0.00099278
-0.08700000	0.00099412
-0.1	0.00099538