File: Data/IV_data/20240619 - Freezing PVSK #1 - JV Data/FZ_006-1_ITO+SnO2+PVSK+PEAI+Spiro+Carbon (Dry Ice)  2024-06-19 11-05-44.txt
Device Id	Operator	Recipe
FZ_006-1_ITO+SnO2+PVSK+PEAI+Spiro+Carbon (Dry Ice) 	Unknown	Jacob PVSKT _ 0.08cm2 (nature recipe).IV

Sample Area	Irradiance	Pre sweep delay	Bias Direction	Max Reverse Bias	Max Forward Bias	Num Sweep Points	Dwell Time	Current Limit	PVIV 10A I-AMP	Average	Dark Current	Rshunt V-Lo	Rshunt V-Hi
0.080000	1.0000	0.5000	0	-0.1000	1.2000	101	10	130	0	1	0	-0.6000	-0.1000

Voc V	Isc A	Jsc mA/cm2	Imax A	Vmax V	Pmax mW	Fill Factor	Efficiency	R at Voc	R at Isc	Power W	RShunt ohms	Cell Temp start	Cell Temp end	Exposure	Time	Date
1.04171	0.00144302	18.0377	0.00100454	0.74449	0.747872	49.7520	9.3484	157.805	3835.263	0.00114878	NaN	NaN	NaN	8.562	11:05:44	06/19/2024

Vmeas	Imeas
1.2	-0.00116994
1.187	-0.00108582
1.174	-0.00099026
1.161	-0.00088615
1.148	-0.00077968
1.135	-0.00067360
1.122	-0.00056856
1.109	-0.00046596
1.096	-0.00036604
1.083	-0.00026914
1.07	-0.00017574
1.057	-0.00008729
1.044	-0.00000309
1.031	0.00007591
1.018	0.00015032
1.005	0.00022521
0.992	0.00029507
0.979	0.00036046
0.966	0.00042159
0.953	0.00047847
0.94	0.00053122
0.927	0.00058016
0.914	0.00062560
0.901	0.00066796
0.888	0.00070738
0.875	0.00074405
0.862	0.00077822
0.849	0.00080980
0.836	0.00083982
0.823	0.00086814
0.81	0.00089417
0.797	0.00091916
0.784	0.00094270
0.771	0.00096466
0.758	0.00098626
0.745	0.00100612
0.732	0.00102489
0.719	0.00104349
0.706	0.00104407
0.693	0.00106282
0.68	0.00108069
0.667	0.00109654
0.654	0.00111274
0.641	0.00112707
0.628	0.00114109
0.615	0.00115441
0.602	0.00116700
0.589	0.00117883
0.576	0.00119096
0.563	0.00120179
0.55	0.00121237
0.537	0.00122304
0.524	0.00123262
0.511	0.00124168
0.498	0.00125141
0.485	0.00125983
0.472	0.00126836
0.459	0.00127646
0.446	0.00128361
0.433	0.00129189
0.42	0.00129915
0.407	0.00130614
0.394	0.00131311
0.381	0.00131971
0.368	0.00132580
0.355	0.00133191
0.342	0.00133748
0.329	0.00134318
0.316	0.00134893
0.303	0.00135460
0.29	0.00135962
0.277	0.00136498
0.264	0.00136973
0.251	0.00137456
0.238	0.00137926
0.225	0.00138400
0.212	0.00138820
0.199	0.00139215
0.186	0.00139616
0.173	0.00140082
0.16	0.00140452
0.147	0.00140832
0.134	0.00141219
0.121	0.00141448
0.108	0.00141883
0.09500000	0.00142180
0.08200000	0.00142496
0.06900000	0.00142706
0.05600000	0.00143051
0.04300000	0.00143411
0.03000000	0.00143767
0.01700000	0.00144010
0.00400000	0.00144254
-0.00900000	0.00144779
-0.02200000	0.00144966
-0.03500000	0.00145135
-0.04800000	0.00145373
-0.06100000	0.00145557
-0.07400000	0.00145793
-0.08700000	0.00146064
-0.1	0.00146239