File: Data/IV_data/20240619 - Freezing PVSK #1 - JV Data/FZ_001-6_ITO+SnO2+PVSK+PEAI+Spiro+Carbon (RT)  2024-06-19 10-05-27.txt
Device Id	Operator	Recipe
FZ_001-6_ITO+SnO2+PVSK+PEAI+Spiro+Carbon (RT) 	Unknown	Jacob PVSKT _ 0.08cm2 (nature recipe).IV

Sample Area	Irradiance	Pre sweep delay	Bias Direction	Max Reverse Bias	Max Forward Bias	Num Sweep Points	Dwell Time	Current Limit	PVIV 10A I-AMP	Average	Dark Current	Rshunt V-Lo	Rshunt V-Hi
0.080000	1.0000	0.5000	0	-0.1000	1.2000	101	10	130	0	1	0	-0.6000	-0.1000

Voc V	Isc A	Jsc mA/cm2	Imax A	Vmax V	Pmax mW	Fill Factor	Efficiency	R at Voc	R at Isc	Power W	RShunt ohms	Cell Temp start	Cell Temp end	Exposure	Time	Date
0.417646	0.00107387	13.4233	0.00056126	0.216289	0.121395	27.0671	1.5174	355.203	459.257	0.00023550	NaN	NaN	NaN	8.562	10:05:27	06/19/2024

Vmeas	Imeas
1.2	-0.00487180
1.187	-0.00451548
1.174	-0.00418179
1.161	-0.00406126
1.148	-0.00396472
1.135	-0.00382745
1.122	-0.00368891
1.109	-0.00360584
1.096	-0.00352070
1.083	-0.00342438
1.07	-0.00333536
1.057	-0.00320949
1.044	-0.00313214
1.031	-0.00303756
1.018	-0.00289830
1.005	-0.00281481
0.992	-0.00272507
0.979	-0.00262418
0.966	-0.00253712
0.953	-0.00245457
0.94	-0.00236116
0.927	-0.00227729
0.914	-0.00218822
0.901	-0.00209603
0.888	-0.00201354
0.875	-0.00191837
0.862	-0.00184897
0.849	-0.00177410
0.836	-0.00170733
0.823	-0.00163573
0.81	-0.00156258
0.797	-0.00148801
0.784	-0.00141802
0.771	-0.00135378
0.758	-0.00128441
0.745	-0.00122711
0.732	-0.00116447
0.719	-0.00110365
0.706	-0.00104492
0.693	-0.00099337
0.68	-0.00093285
0.667	-0.00087401
0.654	-0.00082023
0.641	-0.00076670
0.628	-0.00071443
0.615	-0.00065769
0.602	-0.00060929
0.589	-0.00055925
0.576	-0.00051222
0.563	-0.00046527
0.55	-0.00041911
0.537	-0.00037258
0.524	-0.00032986
0.511	-0.00028273
0.498	-0.00024073
0.485	-0.00019884
0.472	-0.00015700
0.459	-0.00011674
0.446	-0.00008161
0.433	-0.00003909
0.42	-0.00000426
0.407	0.00002496
0.394	0.00006534
0.381	0.00010502
0.368	0.00013584
0.355	0.00017642
0.342	0.00021623
0.329	0.00025383
0.316	0.00029074
0.303	0.00032640
0.29	0.00036202
0.277	0.00039910
0.264	0.00043353
0.251	0.00046935
0.238	0.00050408
0.225	0.00053826
0.212	0.00057258
0.199	0.00060504
0.186	0.00063796
0.173	0.00067046
0.16	0.00070249
0.147	0.00073488
0.134	0.00076600
0.121	0.00079718
0.108	0.00082805
0.09500000	0.00085870
0.08200000	0.00088924
0.06900000	0.00091883
0.05600000	0.00094906
0.04300000	0.00097863
0.03000000	0.00100881
0.01700000	0.00103872
0.00400000	0.00106241
-0.00900000	0.00109334
-0.02200000	0.00112277
-0.03500000	0.00115220
-0.04800000	0.00118153
-0.06100000	0.00121132
-0.07400000	0.00124031
-0.08700000	0.00126985
-0.1	0.00129917