File: Data/IV_data/20240619 - Freezing PVSK #1 - JV Data/FZ_007-2_ITO+SnO2+PVSK+PEAI+Spiro+Carbon (LN2)  2024-06-19 11-16-17.txt
Device Id	Operator	Recipe
FZ_007-2_ITO+SnO2+PVSK+PEAI+Spiro+Carbon (LN2) 	Unknown	Jacob PVSKT _ 0.08cm2 (nature recipe).IV

Sample Area	Irradiance	Pre sweep delay	Bias Direction	Max Reverse Bias	Max Forward Bias	Num Sweep Points	Dwell Time	Current Limit	PVIV 10A I-AMP	Average	Dark Current	Rshunt V-Lo	Rshunt V-Hi
0.080000	1.0000	0.5000	0	-0.1000	1.2000	101	10	130	0	1	0	-0.6000	-0.1000

Voc V	Isc A	Jsc mA/cm2	Imax A	Vmax V	Pmax mW	Fill Factor	Efficiency	R at Voc	R at Isc	Power W	RShunt ohms	Cell Temp start	Cell Temp end	Exposure	Time	Date
0.334664	0.00079812	9.97647	0.00040340	0.168798	0.06809335	25.4935	0.8512	395.555	430.694	0.00013511	NaN	NaN	NaN	8.219	11:16:17	06/19/2024

Vmeas	Imeas
1.2	-0.00447108
1.187	-0.00432103
1.174	-0.00417911
1.161	-0.00403849
1.148	-0.00390103
1.135	-0.00376535
1.122	-0.00363029
1.109	-0.00350105
1.096	-0.00337343
1.083	-0.00324599
1.07	-0.00312424
1.057	-0.00300437
1.044	-0.00288580
1.031	-0.00277208
1.018	-0.00266057
1.005	-0.00255568
0.992	-0.00245212
0.979	-0.00235512
0.966	-0.00225988
0.953	-0.00216985
0.94	-0.00208634
0.927	-0.00200441
0.914	-0.00192493
0.901	-0.00185016
0.888	-0.00177992
0.875	-0.00171297
0.862	-0.00164794
0.849	-0.00158823
0.836	-0.00152787
0.823	-0.00147088
0.81	-0.00141727
0.797	-0.00136433
0.784	-0.00131332
0.771	-0.00126388
0.758	-0.00121609
0.745	-0.00116870
0.732	-0.00112317
0.719	-0.00107869
0.706	-0.00103495
0.693	-0.00099874
0.68	-0.00095469
0.667	-0.00091168
0.654	-0.00087074
0.641	-0.00083010
0.628	-0.00079056
0.615	-0.00075165
0.602	-0.00071377
0.589	-0.00067566
0.576	-0.00063832
0.563	-0.00060101
0.55	-0.00056406
0.537	-0.00052737
0.524	-0.00049147
0.511	-0.00045623
0.498	-0.00042131
0.485	-0.00038589
0.472	-0.00035166
0.459	-0.00031703
0.446	-0.00028260
0.433	-0.00024825
0.42	-0.00021428
0.407	-0.00018047
0.394	-0.00014713
0.381	-0.00011393
0.368	-0.00008488
0.355	-0.00005112
0.342	-0.00001830
0.329	0.00001475
0.316	0.00004746
0.303	0.00007941
0.29	0.00010607
0.277	0.00013891
0.264	0.00017161
0.251	0.00020382
0.238	0.00023594
0.225	0.00026792
0.212	0.00029946
0.199	0.00033096
0.186	0.00036235
0.173	0.00039329
0.16	0.00042440
0.147	0.00045468
0.134	0.00048564
0.121	0.00051667
0.108	0.00054728
0.09500000	0.00057768
0.08200000	0.00060779
0.06900000	0.00063824
0.05600000	0.00066852
0.04300000	0.00069861
0.03000000	0.00072875
0.01700000	0.00075870
0.00400000	0.00078872
-0.00900000	0.00081907
-0.02200000	0.00084917
-0.03500000	0.00087894
-0.04800000	0.00090855
-0.06100000	0.00093892
-0.07400000	0.00096845
-0.08700000	0.00099851
-0.1	0.00102863