File: Data/IV_data/20240619 - Freezing PVSK #1 - JV Data/FZ_009-1_ITO+SnO2+PVSK+PEAI+Spiro+Carbon (LN2)  2024-06-19 11-28-16.txt
Device Id	Operator	Recipe
FZ_009-1_ITO+SnO2+PVSK+PEAI+Spiro+Carbon (LN2) 	Unknown	Jacob PVSKT _ 0.08cm2 (nature recipe).IV

Sample Area	Irradiance	Pre sweep delay	Bias Direction	Max Reverse Bias	Max Forward Bias	Num Sweep Points	Dwell Time	Current Limit	PVIV 10A I-AMP	Average	Dark Current	Rshunt V-Lo	Rshunt V-Hi
0.080000	1.0000	0.5000	0	-0.1000	1.2000	101	10	130	0	1	0	-0.6000	-0.1000

Voc V	Isc A	Jsc mA/cm2	Imax A	Vmax V	Pmax mW	Fill Factor	Efficiency	R at Voc	R at Isc	Power W	RShunt ohms	Cell Temp start	Cell Temp end	Exposure	Time	Date
0.324112	0.00086077	10.7596	0.00043581	0.163853	0.07140944	25.5961	0.8926	338.631	395.158	0.00014123	NaN	NaN	NaN	8.359	11:28:16	06/19/2024

Vmeas	Imeas
1.2	-0.00411574
1.187	-0.00397471
1.174	-0.00383169
1.161	-0.00370567
1.148	-0.00359114
1.135	-0.00348121
1.122	-0.00337717
1.109	-0.00328236
1.096	-0.00319607
1.083	-0.00310290
1.07	-0.00301885
1.057	-0.00294398
1.044	-0.00286168
1.031	-0.00279094
1.018	-0.00271674
1.005	-0.00264960
0.992	-0.00258806
0.979	-0.00251540
0.966	-0.00244975
0.953	-0.00238355
0.94	-0.00232051
0.927	-0.00225823
0.914	-0.00219269
0.901	-0.00212750
0.888	-0.00206089
0.875	-0.00199903
0.862	-0.00193221
0.849	-0.00187148
0.836	-0.00181044
0.823	-0.00174988
0.81	-0.00169030
0.797	-0.00162836
0.784	-0.00157192
0.771	-0.00151307
0.758	-0.00145792
0.745	-0.00140228
0.732	-0.00134919
0.719	-0.00129743
0.706	-0.00124370
0.693	-0.00119180
0.68	-0.00114044
0.667	-0.00109105
0.654	-0.00104194
0.641	-0.00100706
0.628	-0.00095653
0.615	-0.00090855
0.602	-0.00086177
0.589	-0.00081741
0.576	-0.00077052
0.563	-0.00072615
0.55	-0.00068112
0.537	-0.00063872
0.524	-0.00059557
0.511	-0.00055355
0.498	-0.00051083
0.485	-0.00047028
0.472	-0.00042906
0.459	-0.00038863
0.446	-0.00034902
0.433	-0.00030921
0.42	-0.00026893
0.407	-0.00023079
0.394	-0.00019248
0.381	-0.00015509
0.368	-0.00011683
0.355	-0.00009229
0.342	-0.00005222
0.329	-0.00001319
0.316	0.00002407
0.303	0.00006146
0.29	0.00009763
0.277	0.00011339
0.264	0.00015431
0.251	0.00019329
0.238	0.00023131
0.225	0.00026816
0.212	0.00030463
0.199	0.00034036
0.186	0.00037635
0.173	0.00041135
0.16	0.00044612
0.147	0.00048070
0.134	0.00051536
0.121	0.00054998
0.108	0.00058407
0.09500000	0.00061788
0.08200000	0.00065181
0.06900000	0.00068509
0.05600000	0.00071818
0.04300000	0.00075156
0.03000000	0.00078479
0.01700000	0.00081773
0.00400000	0.00085069
-0.00900000	0.00088352
-0.02200000	0.00091601
-0.03500000	0.00094887
-0.04800000	0.00098141
-0.06100000	0.00101409
-0.07400000	0.00104689
-0.08700000	0.00106227
-0.1	0.00109825