File: Data/IV_data/20240619 - Freezing PVSK #1 - JV Data/FZ_009-3_ITO+SnO2+PVSK+PEAI+Spiro+Carbon (LN2)  2024-06-19 11-30-44.txt
Device Id	Operator	Recipe
FZ_009-3_ITO+SnO2+PVSK+PEAI+Spiro+Carbon (LN2) 	Unknown	Jacob PVSKT _ 0.08cm2 (nature recipe).IV

Sample Area	Irradiance	Pre sweep delay	Bias Direction	Max Reverse Bias	Max Forward Bias	Num Sweep Points	Dwell Time	Current Limit	PVIV 10A I-AMP	Average	Dark Current	Rshunt V-Lo	Rshunt V-Hi
0.080000	1.0000	0.5000	0	-0.1000	1.2000	101	10	130	0	1	0	-0.6000	-0.1000

Voc V	Isc A	Jsc mA/cm2	Imax A	Vmax V	Pmax mW	Fill Factor	Efficiency	R at Voc	R at Isc	Power W	RShunt ohms	Cell Temp start	Cell Temp end	Exposure	Time	Date
1.02756	0.00097278	12.1597	0.00076540	0.787583	0.60282	60.3070	7.5352	149.58	10755.312	0.00083895	NaN	NaN	NaN	8.359	11:30:44	06/19/2024

Vmeas	Imeas
1.2	-0.00177965
1.187	-0.00162641
1.174	-0.00146847
1.161	-0.00131061
1.148	-0.00115533
1.135	-0.00100350
1.122	-0.00085302
1.109	-0.00071373
1.096	-0.00057794
1.083	-0.00044857
1.07	-0.00032600
1.057	-0.00021123
1.044	-0.00010383
1.031	-0.00001785
1.018	0.00007554
1.005	0.00014678
0.992	0.00022641
0.979	0.00029669
0.966	0.00035944
0.953	0.00041578
0.94	0.00046455
0.927	0.00050944
0.914	0.00054876
0.901	0.00058365
0.888	0.00061479
0.875	0.00064211
0.862	0.00066646
0.849	0.00068837
0.836	0.00070792
0.823	0.00072566
0.81	0.00074167
0.797	0.00075599
0.784	0.00076888
0.771	0.00078057
0.758	0.00079180
0.745	0.00080075
0.732	0.00081024
0.719	0.00081885
0.706	0.00082555
0.693	0.00083403
0.68	0.00084087
0.667	0.00084745
0.654	0.00085349
0.641	0.00085939
0.628	0.00086500
0.615	0.00087026
0.602	0.00087485
0.589	0.00087934
0.576	0.00088381
0.563	0.00088799
0.55	0.00089186
0.537	0.00089565
0.524	0.00089930
0.511	0.00090294
0.498	0.00090621
0.485	0.00090894
0.472	0.00091211
0.459	0.00091483
0.446	0.00091787
0.433	0.00092028
0.42	0.00092260
0.407	0.00092550
0.394	0.00092792
0.381	0.00093025
0.368	0.00093254
0.355	0.00093407
0.342	0.00093615
0.329	0.00093835
0.316	0.00094018
0.303	0.00094212
0.29	0.00094421
0.277	0.00094557
0.264	0.00094727
0.251	0.00094918
0.238	0.00095058
0.225	0.00095187
0.212	0.00095371
0.199	0.00095490
0.186	0.00095631
0.173	0.00095748
0.16	0.00095935
0.147	0.00095968
0.134	0.00096122
0.121	0.00096232
0.108	0.00096349
0.09500000	0.00096505
0.08200000	0.00096588
0.06900000	0.00096735
0.05600000	0.00096803
0.04300000	0.00096922
0.03000000	0.00096998
0.01700000	0.00097100
0.00400000	0.00097222
-0.00900000	0.00097610
-0.02200000	0.00097548
-0.03500000	0.00097610
-0.04800000	0.00097649
-0.06100000	0.00097731
-0.07400000	0.00097801
-0.08700000	0.00097953
-0.1	0.00097993