File: Data/IV_data/20240619 - Freezing PVSK #1 - JV Data/FZ_007-3_ITO+SnO2+PVSK+PEAI+Spiro+Carbon (LN2)  2024-06-19 11-16-45.txt
Device Id	Operator	Recipe
FZ_007-3_ITO+SnO2+PVSK+PEAI+Spiro+Carbon (LN2) 	Unknown	Jacob PVSKT _ 0.08cm2 (nature recipe).IV

Sample Area	Irradiance	Pre sweep delay	Bias Direction	Max Reverse Bias	Max Forward Bias	Num Sweep Points	Dwell Time	Current Limit	PVIV 10A I-AMP	Average	Dark Current	Rshunt V-Lo	Rshunt V-Hi
0.080000	1.0000	0.5000	0	-0.1000	1.2000	101	10	130	0	1	0	-0.6000	-0.1000

Voc V	Isc A	Jsc mA/cm2	Imax A	Vmax V	Pmax mW	Fill Factor	Efficiency	R at Voc	R at Isc	Power W	RShunt ohms	Cell Temp start	Cell Temp end	Exposure	Time	Date
0.606119	0.00079723	9.9654	0.00042607	0.330425	0.140783	29.1345	1.7598	519.539	984.760	0.00026713	NaN	NaN	NaN	8.219	11:16:45	06/19/2024

Vmeas	Imeas
1.2	-0.00370378
1.187	-0.00346924
1.174	-0.00315851
1.161	-0.00302936
1.148	-0.00288409
1.135	-0.00275139
1.122	-0.00261979
1.109	-0.00248295
1.096	-0.00235563
1.083	-0.00223173
1.07	-0.00210754
1.057	-0.00198959
1.044	-0.00187212
1.031	-0.00176302
1.018	-0.00165218
1.005	-0.00154958
0.992	-0.00144828
0.979	-0.00135188
0.966	-0.00126439
0.953	-0.00117645
0.94	-0.00109812
0.927	-0.00101933
0.914	-0.00094754
0.901	-0.00087859
0.888	-0.00081211
0.875	-0.00075008
0.862	-0.00069255
0.849	-0.00064033
0.836	-0.00058759
0.823	-0.00054047
0.81	-0.00049590
0.797	-0.00045502
0.784	-0.00041374
0.771	-0.00037568
0.758	-0.00033908
0.745	-0.00030320
0.732	-0.00026857
0.719	-0.00023610
0.706	-0.00020406
0.693	-0.00017479
0.68	-0.00014441
0.667	-0.00011628
0.654	-0.00009696
0.641	-0.00006752
0.628	-0.00004063
0.615	-0.00001545
0.602	0.00001076
0.589	0.00003486
0.576	0.00005890
0.563	0.00008210
0.55	0.00010439
0.537	0.00011700
0.524	0.00014093
0.511	0.00016401
0.498	0.00018624
0.485	0.00020697
0.472	0.00022807
0.459	0.00024716
0.446	0.00026699
0.433	0.00028674
0.42	0.00030557
0.407	0.00032385
0.394	0.00034156
0.381	0.00035926
0.368	0.00037679
0.355	0.00039397
0.342	0.00041137
0.329	0.00042794
0.316	0.00044414
0.303	0.00046090
0.29	0.00047733
0.277	0.00049278
0.264	0.00050848
0.251	0.00052432
0.238	0.00053914
0.225	0.00055516
0.212	0.00056959
0.199	0.00058494
0.186	0.00059964
0.173	0.00061456
0.16	0.00062885
0.147	0.00064330
0.134	0.00065732
0.121	0.00067117
0.108	0.00068542
0.09500000	0.00069914
0.08200000	0.00071253
0.06900000	0.00072642
0.05600000	0.00074011
0.04300000	0.00075348
0.03000000	0.00076684
0.01700000	0.00077982
0.00400000	0.00079291
-0.00900000	0.00080715
-0.02200000	0.00081951
-0.03500000	0.00083247
-0.04800000	0.00084549
-0.06100000	0.00085885
-0.07400000	0.00087186
-0.08700000	0.00088518
-0.1	0.00089841