File: Data/IV_data/20240619 - Freezing PVSK #1 - JV Data/FZ_008-3_ITO+SnO2+PVSK+PEAI+Spiro+Carbon (LN2)  2024-06-19 11-24-59.txt
Device Id	Operator	Recipe
FZ_008-3_ITO+SnO2+PVSK+PEAI+Spiro+Carbon (LN2) 	Unknown	Jacob PVSKT _ 0.08cm2 (nature recipe).IV

Sample Area	Irradiance	Pre sweep delay	Bias Direction	Max Reverse Bias	Max Forward Bias	Num Sweep Points	Dwell Time	Current Limit	PVIV 10A I-AMP	Average	Dark Current	Rshunt V-Lo	Rshunt V-Hi
0.080000	1.0000	0.5000	0	-0.1000	1.2000	101	10	130	0	1	0	-0.6000	-0.1000

Voc V	Isc A	Jsc mA/cm2	Imax A	Vmax V	Pmax mW	Fill Factor	Efficiency	R at Voc	R at Isc	Power W	RShunt ohms	Cell Temp start	Cell Temp end	Exposure	Time	Date
1.01378	0.00099570	12.4463	0.00077159	0.736641	0.568382	56.3077	7.1048	194.582	9249.197	0.00082042	NaN	NaN	NaN	8.437	11:24:59	06/19/2024

Vmeas	Imeas
1.2	-0.00134501
1.187	-0.00124165
1.174	-0.00114083
1.161	-0.00102608
1.148	-0.00091858
1.135	-0.00080989
1.122	-0.00071051
1.109	-0.00060910
1.096	-0.00051076
1.083	-0.00041618
1.07	-0.00032440
1.057	-0.00023582
1.044	-0.00015223
1.031	-0.00007489
1.018	-0.00002761
1.005	0.00004653
0.992	0.00011405
0.979	0.00017979
0.966	0.00023993
0.953	0.00029601
0.94	0.00034781
0.927	0.00039519
0.914	0.00043872
0.901	0.00047862
0.888	0.00051506
0.875	0.00054859
0.862	0.00057862
0.849	0.00060588
0.836	0.00063177
0.823	0.00065542
0.81	0.00067706
0.797	0.00069659
0.784	0.00071475
0.771	0.00073168
0.758	0.00074732
0.745	0.00076267
0.732	0.00077543
0.719	0.00079031
0.706	0.00080174
0.693	0.00081220
0.68	0.00082202
0.667	0.00083111
0.654	0.00083971
0.641	0.00084762
0.628	0.00085539
0.615	0.00086241
0.602	0.00086895
0.589	0.00087549
0.576	0.00088160
0.563	0.00088742
0.55	0.00089283
0.537	0.00089803
0.524	0.00090255
0.511	0.00090775
0.498	0.00091176
0.485	0.00091594
0.472	0.00092007
0.459	0.00092393
0.446	0.00092688
0.433	0.00093096
0.42	0.00093432
0.407	0.00093769
0.394	0.00094070
0.381	0.00094360
0.368	0.00094638
0.355	0.00094924
0.342	0.00095183
0.329	0.00095444
0.316	0.00095693
0.303	0.00095900
0.29	0.00096097
0.277	0.00096330
0.264	0.00096551
0.251	0.00096741
0.238	0.00096951
0.225	0.00097158
0.212	0.00097341
0.199	0.00097534
0.186	0.00097662
0.173	0.00097835
0.16	0.00098024
0.147	0.00098184
0.134	0.00098322
0.121	0.00098469
0.108	0.00098602
0.09500000	0.00098730
0.08200000	0.00098855
0.06900000	0.00098974
0.05600000	0.00099109
0.04300000	0.00099251
0.03000000	0.00099366
0.01700000	0.00099452
0.00400000	0.00099561
-0.00900000	0.00099724
-0.02200000	0.00099759
-0.03500000	0.00099893
-0.04800000	0.00099965
-0.06100000	0.00100069
-0.07400000	0.00100164
-0.08700000	0.00100220
-0.1	0.00100331