File: Data/IV_data/20240619 - Freezing PVSK #1 - JV Data/FZ_005-3_ITO+SnO2+PVSK+PEAI+Spiro+Carbon (Dry Ice)  2024-06-19 10-54-00.txt
Device Id	Operator	Recipe
FZ_005-3_ITO+SnO2+PVSK+PEAI+Spiro+Carbon (Dry Ice) 	Unknown	Jacob PVSKT _ 0.08cm2 (nature recipe).IV

Sample Area	Irradiance	Pre sweep delay	Bias Direction	Max Reverse Bias	Max Forward Bias	Num Sweep Points	Dwell Time	Current Limit	PVIV 10A I-AMP	Average	Dark Current	Rshunt V-Lo	Rshunt V-Hi
0.080000	1.0000	0.5000	0	-0.1000	1.2000	101	10	130	0	1	0	-0.6000	-0.1000

Voc V	Isc A	Jsc mA/cm2	Imax A	Vmax V	Pmax mW	Fill Factor	Efficiency	R at Voc	R at Isc	Power W	RShunt ohms	Cell Temp start	Cell Temp end	Exposure	Time	Date
1.05153	0.00138310	17.2887	0.00092074	0.66917	0.616134	42.3646	7.7017	240.994	3013.399	0.00101949	NaN	NaN	NaN	8.297	10:54:00	06/19/2024

Vmeas	Imeas
1.2	-0.00070390
1.187	-0.00064505
1.174	-0.00058054
1.161	-0.00051383
1.148	-0.00044679
1.135	-0.00038012
1.122	-0.00031426
1.109	-0.00025004
1.096	-0.00018736
1.083	-0.00012675
1.07	-0.00006841
1.057	-0.00001194
1.044	0.00004254
1.031	0.00009478
1.018	0.00013964
1.005	0.00018872
0.992	0.00023493
0.979	0.00027886
0.966	0.00032068
0.953	0.00036035
0.94	0.00039808
0.927	0.00043381
0.914	0.00046827
0.901	0.00050116
0.888	0.00053248
0.875	0.00056247
0.862	0.00059128
0.849	0.00061896
0.836	0.00064567
0.823	0.00067152
0.81	0.00069631
0.797	0.00072019
0.784	0.00074352
0.771	0.00076604
0.758	0.00078787
0.745	0.00080901
0.732	0.00082915
0.719	0.00084943
0.706	0.00086889
0.693	0.00088787
0.68	0.00090639
0.667	0.00092417
0.654	0.00094123
0.641	0.00095798
0.628	0.00097430
0.615	0.00099030
0.602	0.00100592
0.589	0.00102096
0.576	0.00103559
0.563	0.00104934
0.55	0.00104323
0.537	0.00106063
0.524	0.00107526
0.511	0.00108912
0.498	0.00110254
0.485	0.00111585
0.472	0.00112826
0.459	0.00114010
0.446	0.00115139
0.433	0.00116255
0.42	0.00117285
0.407	0.00118365
0.394	0.00119397
0.381	0.00120405
0.368	0.00121313
0.355	0.00122231
0.342	0.00123119
0.329	0.00123982
0.316	0.00124789
0.303	0.00125617
0.29	0.00126369
0.277	0.00127128
0.264	0.00127868
0.251	0.00128594
0.238	0.00129313
0.225	0.00129952
0.212	0.00130515
0.199	0.00131175
0.186	0.00131789
0.173	0.00132386
0.16	0.00132962
0.147	0.00133471
0.134	0.00133999
0.121	0.00134501
0.108	0.00134997
0.09500000	0.00135527
0.08200000	0.00135968
0.06900000	0.00136401
0.05600000	0.00136822
0.04300000	0.00137224
0.03000000	0.00137646
0.01700000	0.00138060
0.00400000	0.00138402
-0.00900000	0.00138809
-0.02200000	0.00139114
-0.03500000	0.00139478
-0.04800000	0.00139797
-0.06100000	0.00140139
-0.07400000	0.00140383
-0.08700000	0.00140715
-0.1	0.00141000