File: Data/IV_data/20240619 - Freezing PVSK #1 - JV Data/FZ_004-6_ITO+SnO2+PVSK+PEAI+Spiro+Carbon (Dry Ice)  2024-06-19 10-42-33.txt
Device Id	Operator	Recipe
FZ_004-6_ITO+SnO2+PVSK+PEAI+Spiro+Carbon (Dry Ice) 	Unknown	Jacob PVSKT _ 0.08cm2 (nature recipe).IV

Sample Area	Irradiance	Pre sweep delay	Bias Direction	Max Reverse Bias	Max Forward Bias	Num Sweep Points	Dwell Time	Current Limit	PVIV 10A I-AMP	Average	Dark Current	Rshunt V-Lo	Rshunt V-Hi
0.080000	1.0000	0.5000	0	-0.1000	1.2000	101	10	130	0	1	0	-0.6000	-0.1000

Voc V	Isc A	Jsc mA/cm2	Imax A	Vmax V	Pmax mW	Fill Factor	Efficiency	R at Voc	R at Isc	Power W	RShunt ohms	Cell Temp start	Cell Temp end	Exposure	Time	Date
1.04487	0.00149242	18.6553	0.00118174	0.743276	0.878358	56.3268	10.9795	126.403	8007.927	0.00127733	NaN	NaN	NaN	8.359	10:42:33	06/19/2024

Vmeas	Imeas
1.2	-0.00141810
1.187	-0.00130650
1.174	-0.00118706
1.161	-0.00106255
1.148	-0.00094017
1.135	-0.00081394
1.122	-0.00068657
1.109	-0.00056059
1.096	-0.00043701
1.083	-0.00031661
1.07	-0.00020017
1.057	-0.00008992
1.044	0.00001800
1.031	0.00011170
1.018	0.00021057
1.005	0.00030317
0.992	0.00039005
0.979	0.00047135
0.966	0.00054731
0.953	0.00061755
0.94	0.00068238
0.927	0.00074175
0.914	0.00079643
0.901	0.00084639
0.888	0.00089234
0.875	0.00093411
0.862	0.00097251
0.849	0.00100714
0.836	0.00103781
0.823	0.00105018
0.81	0.00105518
0.797	0.00108670
0.784	0.00111453
0.771	0.00113982
0.758	0.00116265
0.745	0.00118214
0.732	0.00120140
0.719	0.00121844
0.706	0.00123239
0.693	0.00124879
0.68	0.00126286
0.667	0.00127633
0.654	0.00128783
0.641	0.00129889
0.628	0.00130953
0.615	0.00131962
0.602	0.00132881
0.589	0.00133767
0.576	0.00134598
0.563	0.00135426
0.55	0.00136162
0.537	0.00136837
0.524	0.00137497
0.511	0.00138157
0.498	0.00138760
0.485	0.00139335
0.472	0.00139830
0.459	0.00140371
0.446	0.00140867
0.433	0.00141244
0.42	0.00141730
0.407	0.00142137
0.394	0.00142591
0.381	0.00142940
0.368	0.00143332
0.355	0.00143673
0.342	0.00144034
0.329	0.00144355
0.316	0.00144650
0.303	0.00144944
0.29	0.00145221
0.277	0.00145478
0.264	0.00145732
0.251	0.00145972
0.238	0.00146219
0.225	0.00146470
0.212	0.00146723
0.199	0.00146888
0.186	0.00147053
0.173	0.00147260
0.16	0.00147486
0.147	0.00147650
0.134	0.00147806
0.121	0.00147967
0.108	0.00148068
0.09500000	0.00148295
0.08200000	0.00148458
0.06900000	0.00148596
0.05600000	0.00148689
0.04300000	0.00148824
0.03000000	0.00148928
0.01700000	0.00149132
0.00400000	0.00149209
-0.00900000	0.00149547
-0.02200000	0.00149545
-0.03500000	0.00149634
-0.04800000	0.00149710
-0.06100000	0.00149809
-0.07400000	0.00149861
-0.08700000	0.00150011
-0.1	0.00150017