File: Data/IV_data/20240619 - Freezing PVSK #1 - JV Data/FZ_003-3_ITO+SnO2+PVSK+PEAI+Spiro+Carbon (RT)  2024-06-19 10-20-10.txt
Device Id	Operator	Recipe
FZ_003-3_ITO+SnO2+PVSK+PEAI+Spiro+Carbon (RT) 	Unknown	Jacob PVSKT _ 0.08cm2 (nature recipe).IV

Sample Area	Irradiance	Pre sweep delay	Bias Direction	Max Reverse Bias	Max Forward Bias	Num Sweep Points	Dwell Time	Current Limit	PVIV 10A I-AMP	Average	Dark Current	Rshunt V-Lo	Rshunt V-Hi
0.080000	1.0000	0.5000	0	-0.1000	1.2000	101	10	130	0	1	0	-0.6000	-0.1000

Voc V	Isc A	Jsc mA/cm2	Imax A	Vmax V	Pmax mW	Fill Factor	Efficiency	R at Voc	R at Isc	Power W	RShunt ohms	Cell Temp start	Cell Temp end	Exposure	Time	Date
0.832448	0.00105579	13.1974	0.00061911	0.487823	0.302017	34.3635	3.7752	455.58	1616.759	0.00053795	NaN	NaN	NaN	8.484	10:20:10	06/19/2024

Vmeas	Imeas
1.2	-0.00085003
1.187	-0.00078579
1.174	-0.00074866
1.161	-0.00072171
1.148	-0.00068731
1.135	-0.00065509
1.122	-0.00059904
1.109	-0.00059575
1.096	-0.00055955
1.083	-0.00051767
1.07	-0.00048352
1.057	-0.00043206
1.044	-0.00040715
1.031	-0.00037694
1.018	-0.00035245
1.005	-0.00032534
0.992	-0.00030383
0.979	-0.00027471
0.966	-0.00025616
0.953	-0.00024339
0.94	-0.00022443
0.927	-0.00020147
0.914	-0.00017822
0.901	-0.00015385
0.888	-0.00013025
0.875	-0.00010100
0.862	-0.00005555
0.849	-0.00002706
0.836	-0.00000345
0.823	0.00002435
0.81	0.00005438
0.797	0.00008346
0.784	0.00010522
0.771	0.00011868
0.758	0.00016192
0.745	0.00018640
0.732	0.00021359
0.719	0.00022715
0.706	0.00025235
0.693	0.00029308
0.68	0.00031923
0.667	0.00034270
0.654	0.00036743
0.641	0.00038916
0.628	0.00041187
0.615	0.00043341
0.602	0.00045488
0.589	0.00047506
0.576	0.00049613
0.563	0.00051454
0.55	0.00053443
0.537	0.00055314
0.524	0.00057154
0.511	0.00058909
0.498	0.00060609
0.485	0.00062271
0.472	0.00063925
0.459	0.00065396
0.446	0.00066995
0.433	0.00068541
0.42	0.00070073
0.407	0.00071514
0.394	0.00073021
0.381	0.00074415
0.368	0.00075803
0.355	0.00077181
0.342	0.00078548
0.329	0.00079825
0.316	0.00081058
0.303	0.00082294
0.29	0.00083449
0.277	0.00084673
0.264	0.00085830
0.251	0.00086991
0.238	0.00088104
0.225	0.00089294
0.212	0.00090384
0.199	0.00091470
0.186	0.00092513
0.173	0.00093577
0.16	0.00094569
0.147	0.00095633
0.134	0.00096573
0.121	0.00097566
0.108	0.00098548
0.09500000	0.00099482
0.08200000	0.00100417
0.06900000	0.00101334
0.05600000	0.00102211
0.04300000	0.00103094
0.03000000	0.00103966
0.01700000	0.00104838
0.00400000	0.00105100
-0.00900000	0.00105979
-0.02200000	0.00106823
-0.03500000	0.00107678
-0.04800000	0.00108524
-0.06100000	0.00109363
-0.07400000	0.00110159
-0.08700000	0.00110985
-0.1	0.00111786