File: Data/IV_data/20240619 - Freezing PVSK #1 - JV Data/FZ_006-4_ITO+SnO2+PVSK+PEAI+Spiro+Carbon (Dry Ice)  2024-06-19 11-09-37.txt
Device Id	Operator	Recipe
FZ_006-4_ITO+SnO2+PVSK+PEAI+Spiro+Carbon (Dry Ice) 	Unknown	Jacob PVSKT _ 0.08cm2 (nature recipe).IV

Sample Area	Irradiance	Pre sweep delay	Bias Direction	Max Reverse Bias	Max Forward Bias	Num Sweep Points	Dwell Time	Current Limit	PVIV 10A I-AMP	Average	Dark Current	Rshunt V-Lo	Rshunt V-Hi
0.080000	1.0000	0.5000	0	-0.1000	1.2000	101	10	130	0	1	0	-0.6000	-0.1000

Voc V	Isc A	Jsc mA/cm2	Imax A	Vmax V	Pmax mW	Fill Factor	Efficiency	R at Voc	R at Isc	Power W	RShunt ohms	Cell Temp start	Cell Temp end	Exposure	Time	Date
1.02847	0.00151784	18.9731	0.00123573	0.736121	0.909643	58.2710	11.3705	125.187	13875.157	0.00129911	NaN	NaN	NaN	8.500	11:09:37	06/19/2024

Vmeas	Imeas
1.2	-0.00155851
1.187	-0.00146653
1.174	-0.00135599
1.161	-0.00123514
1.148	-0.00110962
1.135	-0.00097972
1.122	-0.00085322
1.109	-0.00072512
1.096	-0.00059823
1.083	-0.00047331
1.07	-0.00035114
1.057	-0.00023231
1.044	-0.00011735
1.031	-0.00001203
1.018	0.00009423
1.005	0.00018861
0.992	0.00028680
0.979	0.00037879
0.966	0.00046524
0.953	0.00054581
0.94	0.00062111
0.927	0.00069054
0.914	0.00075468
0.901	0.00081382
0.888	0.00086848
0.875	0.00091820
0.862	0.00096383
0.849	0.00100523
0.836	0.00104345
0.823	0.00104657
0.81	0.00108477
0.797	0.00111840
0.784	0.00114876
0.771	0.00117593
0.758	0.00120030
0.745	0.00122276
0.732	0.00124356
0.719	0.00126277
0.706	0.00128005
0.693	0.00129622
0.68	0.00131144
0.667	0.00132515
0.654	0.00133817
0.641	0.00135022
0.628	0.00136117
0.615	0.00137106
0.602	0.00138130
0.589	0.00138945
0.576	0.00139849
0.563	0.00140654
0.55	0.00141309
0.537	0.00142063
0.524	0.00142709
0.511	0.00143260
0.498	0.00143787
0.485	0.00144362
0.472	0.00144868
0.459	0.00145327
0.446	0.00145740
0.433	0.00146192
0.42	0.00146594
0.407	0.00146918
0.394	0.00147291
0.381	0.00147617
0.368	0.00147872
0.355	0.00148143
0.342	0.00148450
0.329	0.00148729
0.316	0.00148956
0.303	0.00149149
0.29	0.00149332
0.277	0.00149528
0.264	0.00149709
0.251	0.00149823
0.238	0.00150015
0.225	0.00150200
0.212	0.00150362
0.199	0.00150482
0.186	0.00150576
0.173	0.00150737
0.16	0.00150840
0.147	0.00150927
0.134	0.00151055
0.121	0.00151123
0.108	0.00151246
0.09500000	0.00151275
0.08200000	0.00151374
0.06900000	0.00151468
0.05600000	0.00151510
0.04300000	0.00151589
0.03000000	0.00151680
0.01700000	0.00151747
0.00400000	0.00151744
-0.00900000	0.00151769
-0.02200000	0.00151923
-0.03500000	0.00151942
-0.04800000	0.00152010
-0.06100000	0.00152126
-0.07400000	0.00152110
-0.08700000	0.00152152
-0.1	0.00152171