File: Data/IV_data/20240619 - Freezing PVSK #1 - JV Data/FZ_003-4_ITO+SnO2+PVSK+PEAI+Spiro+Carbon (RT)  2024-06-19 10-20-49.txt
Device Id	Operator	Recipe
FZ_003-4_ITO+SnO2+PVSK+PEAI+Spiro+Carbon (RT) 	Unknown	Jacob PVSKT _ 0.08cm2 (nature recipe).IV

Sample Area	Irradiance	Pre sweep delay	Bias Direction	Max Reverse Bias	Max Forward Bias	Num Sweep Points	Dwell Time	Current Limit	PVIV 10A I-AMP	Average	Dark Current	Rshunt V-Lo	Rshunt V-Hi
0.080000	1.0000	0.5000	0	-0.1000	1.2000	101	10	130	0	1	0	-0.6000	-0.1000

Voc V	Isc A	Jsc mA/cm2	Imax A	Vmax V	Pmax mW	Fill Factor	Efficiency	R at Voc	R at Isc	Power W	RShunt ohms	Cell Temp start	Cell Temp end	Exposure	Time	Date
1.08256	0.00168238	21.0298	0.00133853	0.739605	0.989987	54.3568	12.3748	150.15	9226.660	0.00146079	NaN	NaN	NaN	8.500	10:20:49	06/19/2024

Vmeas	Imeas
1.2	-0.00087294
1.187	-0.00076721
1.174	-0.00066441
1.161	-0.00056359
1.148	-0.00046432
1.135	-0.00036634
1.122	-0.00026997
1.109	-0.00017599
1.096	-0.00008349
1.083	0.00000554
1.07	0.00009212
1.057	0.00017445
1.044	0.00025720
1.031	0.00033639
1.018	0.00041245
1.005	0.00048506
0.992	0.00055457
0.979	0.00062067
0.966	0.00068385
0.953	0.00074364
0.94	0.00080053
0.927	0.00085423
0.914	0.00090472
0.901	0.00095261
0.888	0.00099758
0.875	0.00104016
0.862	0.00102545
0.849	0.00107080
0.836	0.00111212
0.823	0.00115064
0.81	0.00118616
0.797	0.00121842
0.784	0.00124929
0.771	0.00127738
0.758	0.00130382
0.745	0.00132819
0.732	0.00135081
0.719	0.00137169
0.706	0.00139178
0.693	0.00140995
0.68	0.00142719
0.667	0.00144339
0.654	0.00145873
0.641	0.00147214
0.628	0.00148536
0.615	0.00149718
0.602	0.00150872
0.589	0.00152004
0.576	0.00153025
0.563	0.00153907
0.55	0.00154822
0.537	0.00155678
0.524	0.00156473
0.511	0.00157147
0.498	0.00157867
0.485	0.00158511
0.472	0.00159037
0.459	0.00159645
0.446	0.00160145
0.433	0.00160689
0.42	0.00161202
0.407	0.00161628
0.394	0.00162043
0.381	0.00162469
0.368	0.00162769
0.355	0.00163217
0.342	0.00163497
0.329	0.00163826
0.316	0.00164038
0.303	0.00164431
0.29	0.00164737
0.277	0.00164932
0.264	0.00165268
0.251	0.00165487
0.238	0.00165621
0.225	0.00165979
0.212	0.00166080
0.199	0.00166194
0.186	0.00166504
0.173	0.00166704
0.16	0.00166870
0.147	0.00166959
0.134	0.00167153
0.121	0.00167224
0.108	0.00167325
0.09500000	0.00167423
0.08200000	0.00167609
0.06900000	0.00167648
0.05600000	0.00167807
0.04300000	0.00167959
0.03000000	0.00168077
0.01700000	0.00168119
0.00400000	0.00168186
-0.00900000	0.00168439
-0.02200000	0.00168484
-0.03500000	0.00168513
-0.04800000	0.00168547
-0.06100000	0.00168629
-0.07400000	0.00168673
-0.08700000	0.00168783
-0.1	0.00168833