File: Data/IV_data/20240619 - Freezing PVSK #1 - JV Data/FZ_003-6_ITO+SnO2+PVSK+PEAI+Spiro+Carbon (RT)  2024-06-19 10-24-14.txt
Device Id	Operator	Recipe
FZ_003-6_ITO+SnO2+PVSK+PEAI+Spiro+Carbon (RT) 	Unknown	Jacob PVSKT _ 0.08cm2 (nature recipe).IV

Sample Area	Irradiance	Pre sweep delay	Bias Direction	Max Reverse Bias	Max Forward Bias	Num Sweep Points	Dwell Time	Current Limit	PVIV 10A I-AMP	Average	Dark Current	Rshunt V-Lo	Rshunt V-Hi
0.080000	1.0000	0.5000	0	-0.1000	1.2000	101	10	130	0	1	0	-0.6000	-0.1000

Voc V	Isc A	Jsc mA/cm2	Imax A	Vmax V	Pmax mW	Fill Factor	Efficiency	R at Voc	R at Isc	Power W	RShunt ohms	Cell Temp start	Cell Temp end	Exposure	Time	Date
1.04537	0.00169756	21.2195	0.00131383	0.649624	0.853496	48.0956	10.6687	214.429	5053.326	0.00132811	NaN	NaN	NaN	8.500	10:24:14	06/19/2024

Vmeas	Imeas
1.2	-0.00089997
1.187	-0.00081510
1.174	-0.00072409
1.161	-0.00063263
1.148	-0.00054438
1.135	-0.00046039
1.122	-0.00038116
1.109	-0.00030602
1.096	-0.00023652
1.083	-0.00017156
1.07	-0.00011062
1.057	-0.00004863
1.044	0.00001990
1.031	0.00007453
1.018	0.00013202
1.005	0.00018892
0.992	0.00024414
0.979	0.00029840
0.966	0.00035207
0.953	0.00040538
0.94	0.00045781
0.927	0.00050960
0.914	0.00056100
0.901	0.00061201
0.888	0.00066252
0.875	0.00071259
0.862	0.00075957
0.849	0.00080659
0.836	0.00085180
0.823	0.00089603
0.81	0.00093817
0.797	0.00097889
0.784	0.00101795
0.771	0.00105018
0.758	0.00104383
0.745	0.00108740
0.732	0.00112541
0.719	0.00116004
0.706	0.00119302
0.693	0.00122388
0.68	0.00125270
0.667	0.00127979
0.654	0.00130539
0.641	0.00132860
0.628	0.00135128
0.615	0.00137305
0.602	0.00139287
0.589	0.00141079
0.576	0.00142847
0.563	0.00144447
0.55	0.00146006
0.537	0.00147390
0.524	0.00148769
0.511	0.00149966
0.498	0.00151124
0.485	0.00152296
0.472	0.00153321
0.459	0.00154302
0.446	0.00155229
0.433	0.00156079
0.42	0.00156949
0.407	0.00157779
0.394	0.00158516
0.381	0.00159224
0.368	0.00159892
0.355	0.00160460
0.342	0.00161079
0.329	0.00161763
0.316	0.00162372
0.303	0.00162813
0.29	0.00163252
0.277	0.00163731
0.264	0.00164097
0.251	0.00164539
0.238	0.00164939
0.225	0.00165301
0.212	0.00165717
0.199	0.00166060
0.186	0.00166394
0.173	0.00166712
0.16	0.00166994
0.147	0.00167254
0.134	0.00167564
0.121	0.00167783
0.108	0.00168049
0.09500000	0.00168321
0.08200000	0.00168548
0.06900000	0.00168846
0.05600000	0.00169029
0.04300000	0.00169221
0.03000000	0.00169394
0.01700000	0.00169591
0.00400000	0.00169830
-0.00900000	0.00170041
-0.02200000	0.00170208
-0.03500000	0.00170288
-0.04800000	0.00170366
-0.06100000	0.00170528
-0.07400000	0.00170716
-0.08700000	0.00170827
-0.1	0.00170954