File: Data/IV_data/20240619 - Freezing PVSK #1 - JV Data/FZ_002-3_ITO+SnO2+PVSK+PEAI+Spiro+Carbon (RT)  2024-06-19 10-11-16.txt
Device Id	Operator	Recipe
FZ_002-3_ITO+SnO2+PVSK+PEAI+Spiro+Carbon (RT) 	Unknown	Jacob PVSKT _ 0.08cm2 (nature recipe).IV

Sample Area	Irradiance	Pre sweep delay	Bias Direction	Max Reverse Bias	Max Forward Bias	Num Sweep Points	Dwell Time	Current Limit	PVIV 10A I-AMP	Average	Dark Current	Rshunt V-Lo	Rshunt V-Hi
0.080000	1.0000	0.5000	0	-0.1000	1.2000	101	10	130	0	1	0	-0.6000	-0.1000

Voc V	Isc A	Jsc mA/cm2	Imax A	Vmax V	Pmax mW	Fill Factor	Efficiency	R at Voc	R at Isc	Power W	RShunt ohms	Cell Temp start	Cell Temp end	Exposure	Time	Date
1.05182	0.00160888	20.111	0.00118798	0.707796	0.840848	49.6882	10.5106	176.512	4161.885	0.00129213	NaN	NaN	NaN	8.297	10:11:16	06/19/2024

Vmeas	Imeas
1.2	-0.00088896
1.187	-0.00081485
1.174	-0.00073787
1.161	-0.00065887
1.148	-0.00057858
1.135	-0.00049765
1.122	-0.00041623
1.109	-0.00033558
1.096	-0.00025527
1.083	-0.00017634
1.07	-0.00010024
1.057	-0.00002314
1.044	0.00005211
1.031	0.00011949
1.018	0.00019154
1.005	0.00026074
0.992	0.00032730
0.979	0.00039137
0.966	0.00045297
0.953	0.00051169
0.94	0.00056801
0.927	0.00062139
0.914	0.00067234
0.901	0.00072059
0.888	0.00076637
0.875	0.00080960
0.862	0.00085059
0.849	0.00088942
0.836	0.00092592
0.823	0.00096074
0.81	0.00099360
0.797	0.00102472
0.784	0.00105018
0.771	0.00106711
0.758	0.00109537
0.745	0.00112182
0.732	0.00114675
0.719	0.00117018
0.706	0.00119208
0.693	0.00121297
0.68	0.00123262
0.667	0.00125101
0.654	0.00126881
0.641	0.00128547
0.628	0.00130127
0.615	0.00131595
0.602	0.00133040
0.589	0.00134365
0.576	0.00135672
0.563	0.00136879
0.55	0.00138056
0.537	0.00139170
0.524	0.00140196
0.511	0.00141213
0.498	0.00142218
0.485	0.00143165
0.472	0.00144029
0.459	0.00144885
0.446	0.00145694
0.433	0.00146461
0.42	0.00147238
0.407	0.00147958
0.394	0.00148699
0.381	0.00149327
0.368	0.00149937
0.355	0.00150561
0.342	0.00151126
0.329	0.00151692
0.316	0.00152242
0.303	0.00152721
0.29	0.00153257
0.277	0.00153738
0.264	0.00154213
0.251	0.00154637
0.238	0.00155098
0.225	0.00155478
0.212	0.00155921
0.199	0.00156282
0.186	0.00156698
0.173	0.00157012
0.16	0.00157431
0.147	0.00157730
0.134	0.00158062
0.121	0.00158399
0.108	0.00158738
0.09500000	0.00159059
0.08200000	0.00159334
0.06900000	0.00159553
0.05600000	0.00159857
0.04300000	0.00160140
0.03000000	0.00160317
0.01700000	0.00160589
0.00400000	0.00160913
-0.00900000	0.00161180
-0.02200000	0.00161374
-0.03500000	0.00161607
-0.04800000	0.00161790
-0.06100000	0.00162003
-0.07400000	0.00162222
-0.08700000	0.00162432
-0.1	0.00162575