File: Data/IV_data/20240619 - Freezing PVSK #1 - JV Data/FZ_003-5_ITO+SnO2+PVSK+PEAI+Spiro+Carbon (RT)  2024-06-19 10-22-18.txt
Device Id	Operator	Recipe
FZ_003-5_ITO+SnO2+PVSK+PEAI+Spiro+Carbon (RT) 	Unknown	Jacob PVSKT _ 0.08cm2 (nature recipe).IV

Sample Area	Irradiance	Pre sweep delay	Bias Direction	Max Reverse Bias	Max Forward Bias	Num Sweep Points	Dwell Time	Current Limit	PVIV 10A I-AMP	Average	Dark Current	Rshunt V-Lo	Rshunt V-Hi
0.080000	1.0000	0.5000	0	-0.1000	1.2000	101	10	130	0	1	0	-0.6000	-0.1000

Voc V	Isc A	Jsc mA/cm2	Imax A	Vmax V	Pmax mW	Fill Factor	Efficiency	R at Voc	R at Isc	Power W	RShunt ohms	Cell Temp start	Cell Temp end	Exposure	Time	Date
1.10003	0.00169172	21.1465	0.00129326	0.746253	0.965099	51.8606	12.0637	152.146	5291.365	0.00145746	NaN	NaN	NaN	8.281	10:22:18	06/19/2024

Vmeas	Imeas
1.2	-0.00069266
1.187	-0.00060326
1.174	-0.00051064
1.161	-0.00041666
1.148	-0.00032283
1.135	-0.00023003
1.122	-0.00013847
1.109	-0.00005123
1.096	0.00003631
1.083	0.00011470
1.07	0.00019736
1.057	0.00027644
1.044	0.00035232
1.031	0.00042481
1.018	0.00049400
1.005	0.00055986
0.992	0.00062234
0.979	0.00068152
0.966	0.00073728
0.953	0.00078988
0.94	0.00083933
0.927	0.00088584
0.914	0.00092959
0.901	0.00097045
0.888	0.00100883
0.875	0.00104533
0.862	0.00104257
0.849	0.00107918
0.836	0.00111303
0.823	0.00114455
0.81	0.00117386
0.797	0.00120117
0.784	0.00122661
0.771	0.00125103
0.758	0.00127369
0.745	0.00129488
0.732	0.00131529
0.719	0.00133413
0.706	0.00135249
0.693	0.00136933
0.68	0.00138598
0.667	0.00140081
0.654	0.00141580
0.641	0.00142967
0.628	0.00144271
0.615	0.00145504
0.602	0.00146712
0.589	0.00147804
0.576	0.00148831
0.563	0.00149850
0.55	0.00150851
0.537	0.00151724
0.524	0.00152616
0.511	0.00153471
0.498	0.00154246
0.485	0.00155042
0.472	0.00155774
0.459	0.00156478
0.446	0.00157165
0.433	0.00157783
0.42	0.00158390
0.407	0.00158985
0.394	0.00159555
0.381	0.00160074
0.368	0.00160582
0.355	0.00161078
0.342	0.00161569
0.329	0.00162002
0.316	0.00162421
0.303	0.00162900
0.29	0.00163312
0.277	0.00163711
0.264	0.00164057
0.251	0.00164385
0.238	0.00164753
0.225	0.00165123
0.212	0.00165413
0.199	0.00165718
0.186	0.00166004
0.173	0.00166310
0.16	0.00166592
0.147	0.00166887
0.134	0.00167056
0.121	0.00167318
0.108	0.00167536
0.09500000	0.00167789
0.08200000	0.00168020
0.06900000	0.00168208
0.05600000	0.00168415
0.04300000	0.00168563
0.03000000	0.00168789
0.01700000	0.00168978
0.00400000	0.00169136
-0.00900000	0.00169353
-0.02200000	0.00169491
-0.03500000	0.00169640
-0.04800000	0.00169802
-0.06100000	0.00169922
-0.07400000	0.00170052
-0.08700000	0.00170244
-0.1	0.00170370