File: Data/IV_data/20240619 - Freezing PVSK #1 - JV Data/FZ_007-1_ITO+SnO2+PVSK+PEAI+Spiro+Carbon (LN2)  2024-06-19 11-15-33.txt
Device Id	Operator	Recipe
FZ_007-1_ITO+SnO2+PVSK+PEAI+Spiro+Carbon (LN2) 	Unknown	Jacob PVSKT _ 0.08cm2 (nature recipe).IV

Sample Area	Irradiance	Pre sweep delay	Bias Direction	Max Reverse Bias	Max Forward Bias	Num Sweep Points	Dwell Time	Current Limit	PVIV 10A I-AMP	Average	Dark Current	Rshunt V-Lo	Rshunt V-Hi
0.080000	1.0000	0.5000	0	-0.1000	1.2000	101	10	130	0	1	0	-0.6000	-0.1000

Voc V	Isc A	Jsc mA/cm2	Imax A	Vmax V	Pmax mW	Fill Factor	Efficiency	R at Voc	R at Isc	Power W	RShunt ohms	Cell Temp start	Cell Temp end	Exposure	Time	Date
0.487345	0.00068478	8.55973	0.00035220	0.251231	0.08848352	26.5141	1.1060	665.872	778.603	0.00017306	NaN	NaN	NaN	8.422	11:15:33	06/19/2024

Vmeas	Imeas
1.2	-0.00243366
1.187	-0.00234626
1.174	-0.00225884
1.161	-0.00217909
1.148	-0.00209526
1.135	-0.00201657
1.122	-0.00193523
1.109	-0.00186286
1.096	-0.00178970
1.083	-0.00171703
1.07	-0.00164701
1.057	-0.00157891
1.044	-0.00150994
1.031	-0.00144416
1.018	-0.00138033
1.005	-0.00131639
0.992	-0.00125610
0.979	-0.00119675
0.966	-0.00114148
0.953	-0.00108725
0.94	-0.00103446
0.927	-0.00098617
0.914	-0.00093696
0.901	-0.00089017
0.888	-0.00084659
0.875	-0.00080489
0.862	-0.00076556
0.849	-0.00072688
0.836	-0.00068964
0.823	-0.00065512
0.81	-0.00062090
0.797	-0.00058875
0.784	-0.00055765
0.771	-0.00052575
0.758	-0.00049585
0.745	-0.00046582
0.732	-0.00043719
0.719	-0.00040932
0.706	-0.00038208
0.693	-0.00035499
0.68	-0.00032971
0.667	-0.00030544
0.654	-0.00028112
0.641	-0.00025685
0.628	-0.00023333
0.615	-0.00021021
0.602	-0.00018720
0.589	-0.00016435
0.576	-0.00014093
0.563	-0.00012005
0.55	-0.00009998
0.537	-0.00007780
0.524	-0.00005623
0.511	-0.00003495
0.498	-0.00001361
0.485	0.00000379
0.472	0.00002049
0.459	0.00004228
0.446	0.00006288
0.433	0.00008415
0.42	0.00010435
0.407	0.00012074
0.394	0.00014162
0.381	0.00016213
0.368	0.00018247
0.355	0.00020211
0.342	0.00022150
0.329	0.00024062
0.316	0.00025988
0.303	0.00027839
0.29	0.00029731
0.277	0.00031584
0.264	0.00033436
0.251	0.00035236
0.238	0.00037068
0.225	0.00038858
0.212	0.00040598
0.199	0.00042403
0.186	0.00044174
0.173	0.00045906
0.16	0.00047645
0.147	0.00049407
0.134	0.00051132
0.121	0.00052865
0.108	0.00054565
0.09500000	0.00056259
0.08200000	0.00057951
0.06900000	0.00059636
0.05600000	0.00061319
0.04300000	0.00062985
0.03000000	0.00064621
0.01700000	0.00066292
0.00400000	0.00067949
-0.00900000	0.00069683
-0.02200000	0.00071274
-0.03500000	0.00072906
-0.04800000	0.00074531
-0.06100000	0.00076202
-0.07400000	0.00077833
-0.08700000	0.00079479
-0.1	0.00081099