File: Data/IV_data/20240619 - Freezing PVSK #1 - JV Data/FZ_002-1_ITO+SnO2+PVSK+PEAI+Spiro+Carbon (RT)  2024-06-19 10-06-50.txt
Device Id	Operator	Recipe
FZ_002-1_ITO+SnO2+PVSK+PEAI+Spiro+Carbon (RT) 	Unknown	Jacob PVSKT _ 0.08cm2 (nature recipe).IV

Sample Area	Irradiance	Pre sweep delay	Bias Direction	Max Reverse Bias	Max Forward Bias	Num Sweep Points	Dwell Time	Current Limit	PVIV 10A I-AMP	Average	Dark Current	Rshunt V-Lo	Rshunt V-Hi
0.080000	1.0000	0.5000	0	-0.1000	1.2000	101	10	130	0	1	0	-0.6000	-0.1000

Voc V	Isc A	Jsc mA/cm2	Imax A	Vmax V	Pmax mW	Fill Factor	Efficiency	R at Voc	R at Isc	Power W	RShunt ohms	Cell Temp start	Cell Temp end	Exposure	Time	Date
0.953187	0.00119316	14.9145	0.00075324	0.586052	0.441436	38.8144	5.5180	354.635	2244.867	0.00075111	NaN	NaN	NaN	8.484	10:06:50	06/19/2024

Vmeas	Imeas
1.2	-0.00071974
1.187	-0.00068998
1.174	-0.00065482
1.161	-0.00062080
1.148	-0.00058260
1.135	-0.00054534
1.122	-0.00050515
1.109	-0.00046725
1.096	-0.00042244
1.083	-0.00038270
1.07	-0.00034133
1.057	-0.00030478
1.044	-0.00025977
1.031	-0.00022053
1.018	-0.00018436
1.005	-0.00014725
0.992	-0.00011055
0.979	-0.00007203
0.966	-0.00003442
0.953	0.00000325
0.94	0.00004109
0.927	0.00007777
0.914	0.00011246
0.901	0.00014697
0.888	0.00018129
0.875	0.00021454
0.862	0.00024574
0.849	0.00027914
0.836	0.00031038
0.823	0.00033844
0.81	0.00036674
0.797	0.00039502
0.784	0.00042341
0.771	0.00045157
0.758	0.00047805
0.745	0.00050310
0.732	0.00052756
0.719	0.00055140
0.706	0.00057292
0.693	0.00059533
0.68	0.00061685
0.667	0.00063789
0.654	0.00065803
0.641	0.00067795
0.628	0.00069637
0.615	0.00071447
0.602	0.00073240
0.589	0.00074956
0.576	0.00076613
0.563	0.00078219
0.55	0.00079793
0.537	0.00081285
0.524	0.00082794
0.511	0.00084302
0.498	0.00085701
0.485	0.00087050
0.472	0.00088362
0.459	0.00089656
0.446	0.00090817
0.433	0.00091892
0.42	0.00093194
0.407	0.00094308
0.394	0.00095660
0.381	0.00096436
0.368	0.00097441
0.355	0.00098613
0.342	0.00099863
0.329	0.00100496
0.316	0.00101620
0.303	0.00102331
0.29	0.00103554
0.277	0.00104442
0.264	0.00105210
0.251	0.00105923
0.238	0.00106741
0.225	0.00107681
0.212	0.00108384
0.199	0.00109176
0.186	0.00109903
0.173	0.00110652
0.16	0.00111437
0.147	0.00112155
0.134	0.00112884
0.121	0.00113598
0.108	0.00114274
0.09500000	0.00114924
0.08200000	0.00115576
0.06900000	0.00116221
0.05600000	0.00117226
0.04300000	0.00117803
0.03000000	0.00118352
0.01700000	0.00118887
0.00400000	0.00119389
-0.00900000	0.00120171
-0.02200000	0.00120501
-0.03500000	0.00120962
-0.04800000	0.00121425
-0.06100000	0.00121887
-0.07400000	0.00122386
-0.08700000	0.00122854
-0.1	0.00123291