File: Data/IV_data/20240619 - Freezing PVSK #1 - JV Data/FZ_004-5_ITO+SnO2+PVSK+PEAI+Spiro+Carbon (Dry Ice)  2024-06-19 10-40-07.txt
Device Id	Operator	Recipe
FZ_004-5_ITO+SnO2+PVSK+PEAI+Spiro+Carbon (Dry Ice) 	Unknown	Jacob PVSKT _ 0.08cm2 (nature recipe).IV

Sample Area	Irradiance	Pre sweep delay	Bias Direction	Max Reverse Bias	Max Forward Bias	Num Sweep Points	Dwell Time	Current Limit	PVIV 10A I-AMP	Average	Dark Current	Rshunt V-Lo	Rshunt V-Hi
0.080000	1.0000	0.5000	0	-0.1000	1.2000	101	10	130	0	1	0	-0.6000	-0.1000

Voc V	Isc A	Jsc mA/cm2	Imax A	Vmax V	Pmax mW	Fill Factor	Efficiency	R at Voc	R at Isc	Power W	RShunt ohms	Cell Temp start	Cell Temp end	Exposure	Time	Date
1.05404	0.00157687	19.7108	0.00121569	0.693944	0.843618	50.7566	10.5452	151.274	6680.396	0.00130237	NaN	NaN	NaN	8.562	10:40:07	06/19/2024

Vmeas	Imeas
1.2	-0.00114855
1.187	-0.00103491
1.174	-0.00093947
1.161	-0.00082775
1.148	-0.00071716
1.135	-0.00060783
1.122	-0.00049963
1.109	-0.00039370
1.096	-0.00029032
1.083	-0.00018974
1.07	-0.00009349
1.057	-0.00000311
1.044	0.00007960
1.031	0.00015510
1.018	0.00023659
1.005	0.00031330
0.992	0.00038576
0.979	0.00045402
0.966	0.00051851
0.953	0.00057846
0.94	0.00063443
0.927	0.00068675
0.914	0.00073569
0.901	0.00078096
0.888	0.00082378
0.875	0.00086396
0.862	0.00090147
0.849	0.00093640
0.836	0.00097014
0.823	0.00100216
0.81	0.00103217
0.797	0.00105018
0.784	0.00102487
0.771	0.00106408
0.758	0.00109581
0.745	0.00112440
0.732	0.00115043
0.719	0.00117506
0.706	0.00119792
0.693	0.00121942
0.68	0.00123982
0.667	0.00125884
0.654	0.00127652
0.641	0.00129262
0.628	0.00130911
0.615	0.00132420
0.602	0.00133847
0.589	0.00135248
0.576	0.00136525
0.563	0.00137766
0.55	0.00138941
0.537	0.00140066
0.524	0.00141082
0.511	0.00142097
0.498	0.00143037
0.485	0.00143968
0.472	0.00144825
0.459	0.00145602
0.446	0.00146393
0.433	0.00147094
0.42	0.00147763
0.407	0.00148437
0.394	0.00148993
0.381	0.00149579
0.368	0.00150136
0.355	0.00150607
0.342	0.00151106
0.329	0.00151601
0.316	0.00152022
0.303	0.00152448
0.29	0.00152778
0.277	0.00153137
0.264	0.00153517
0.251	0.00153836
0.238	0.00154175
0.225	0.00154443
0.212	0.00154688
0.199	0.00154971
0.186	0.00155246
0.173	0.00155485
0.16	0.00155708
0.147	0.00155937
0.134	0.00156165
0.121	0.00156318
0.108	0.00156438
0.09500000	0.00156642
0.08200000	0.00156850
0.06900000	0.00156996
0.05600000	0.00157080
0.04300000	0.00157241
0.03000000	0.00157411
0.01700000	0.00157555
0.00400000	0.00157666
-0.00900000	0.00157960
-0.02200000	0.00157926
-0.03500000	0.00158006
-0.04800000	0.00158136
-0.06100000	0.00158334
-0.07400000	0.00158330
-0.08700000	0.00158408
-0.1	0.00158462