File: Data/IV_data/20240619 - Freezing PVSK #1 - JV Data/FZ_006-6_ITO+SnO2+PVSK+PEAI+Spiro+Carbon (Dry Ice)  2024-06-19 11-13-20.txt
Device Id	Operator	Recipe
FZ_006-6_ITO+SnO2+PVSK+PEAI+Spiro+Carbon (Dry Ice) 	Unknown	Jacob PVSKT _ 0.08cm2 (nature recipe).IV

Sample Area	Irradiance	Pre sweep delay	Bias Direction	Max Reverse Bias	Max Forward Bias	Num Sweep Points	Dwell Time	Current Limit	PVIV 10A I-AMP	Average	Dark Current	Rshunt V-Lo	Rshunt V-Hi
0.080000	1.0000	0.5000	0	-0.1000	1.2000	101	10	130	0	1	0	-0.6000	-0.1000

Voc V	Isc A	Jsc mA/cm2	Imax A	Vmax V	Pmax mW	Fill Factor	Efficiency	R at Voc	R at Isc	Power W	RShunt ohms	Cell Temp start	Cell Temp end	Exposure	Time	Date
1.05559	0.00155173	19.3966	0.00118306	0.728801	0.862213	52.6384	10.7777	138.739	6413.884	0.00130203	NaN	NaN	NaN	8.547	11:13:20	06/19/2024

Vmeas	Imeas
1.2	-0.00124929
1.187	-0.00114214
1.174	-0.00102569
1.161	-0.00091026
1.148	-0.00078877
1.135	-0.00066659
1.122	-0.00054533
1.109	-0.00042707
1.096	-0.00031233
1.083	-0.00020175
1.07	-0.00009746
1.057	0.00000122
1.044	0.00009268
1.031	0.00017809
1.018	0.00026639
1.005	0.00034811
0.992	0.00042403
0.979	0.00049493
0.966	0.00056115
0.953	0.00062209
0.94	0.00067850
0.927	0.00073052
0.914	0.00077881
0.901	0.00082357
0.888	0.00086512
0.875	0.00090386
0.862	0.00093971
0.849	0.00097212
0.836	0.00100395
0.823	0.00103359
0.81	0.00105018
0.797	0.00105237
0.784	0.00108326
0.771	0.00111124
0.758	0.00113593
0.745	0.00115941
0.732	0.00118034
0.719	0.00120090
0.706	0.00121987
0.693	0.00123773
0.68	0.00125416
0.667	0.00126992
0.654	0.00128476
0.641	0.00129850
0.628	0.00131212
0.615	0.00132455
0.602	0.00133671
0.589	0.00134805
0.576	0.00135869
0.563	0.00136901
0.55	0.00137895
0.537	0.00138909
0.524	0.00139812
0.511	0.00140670
0.498	0.00141410
0.485	0.00142206
0.472	0.00142907
0.459	0.00143635
0.446	0.00144253
0.433	0.00144896
0.42	0.00145564
0.407	0.00146123
0.394	0.00146665
0.381	0.00147180
0.368	0.00147691
0.355	0.00148149
0.342	0.00148539
0.329	0.00149003
0.316	0.00149391
0.303	0.00149764
0.29	0.00150173
0.277	0.00150483
0.264	0.00150876
0.251	0.00151165
0.238	0.00151456
0.225	0.00151795
0.212	0.00152056
0.199	0.00152327
0.186	0.00152582
0.173	0.00152786
0.16	0.00153047
0.147	0.00153234
0.134	0.00153415
0.121	0.00153666
0.108	0.00153863
0.09500000	0.00154091
0.08200000	0.00154242
0.06900000	0.00154464
0.05600000	0.00154592
0.04300000	0.00154795
0.03000000	0.00154886
0.01700000	0.00155059
0.00400000	0.00155220
-0.00900000	0.00155378
-0.02200000	0.00155478
-0.03500000	0.00155540
-0.04800000	0.00155594
-0.06100000	0.00155733
-0.07400000	0.00155880
-0.08700000	0.00155996
-0.1	0.00156102