File: Data/IV_data/20240619 - Freezing PVSK #1 - JV Data/FZ_004-3_ITO+SnO2+PVSK+PEAI+Spiro+Carbon (Dry Ice)  2024-06-19 10-36-45.txt
Device Id	Operator	Recipe
FZ_004-3_ITO+SnO2+PVSK+PEAI+Spiro+Carbon (Dry Ice) 	Unknown	Jacob PVSKT _ 0.08cm2 (nature recipe).IV

Sample Area	Irradiance	Pre sweep delay	Bias Direction	Max Reverse Bias	Max Forward Bias	Num Sweep Points	Dwell Time	Current Limit	PVIV 10A I-AMP	Average	Dark Current	Rshunt V-Lo	Rshunt V-Hi
0.080000	1.0000	0.5000	0	-0.1000	1.2000	101	10	130	0	1	0	-0.6000	-0.1000

Voc V	Isc A	Jsc mA/cm2	Imax A	Vmax V	Pmax mW	Fill Factor	Efficiency	R at Voc	R at Isc	Power W	RShunt ohms	Cell Temp start	Cell Temp end	Exposure	Time	Date
1.03098	0.00141102	17.6378	0.00101982	0.740013	0.75468	51.8777	9.4335	163.578	5642.334	0.00113816	NaN	NaN	NaN	8.375	10:36:45	06/19/2024

Vmeas	Imeas
1.2	-0.00115376
1.187	-0.00108432
1.174	-0.00100053
1.161	-0.00091361
1.148	-0.00081894
1.135	-0.00072147
1.122	-0.00062326
1.109	-0.00052598
1.096	-0.00043026
1.083	-0.00033649
1.07	-0.00024522
1.057	-0.00015657
1.044	-0.00007238
1.031	0.00001009
1.018	0.00008918
1.005	0.00015789
0.992	0.00023094
0.979	0.00029962
0.966	0.00036465
0.953	0.00042556
0.94	0.00048294
0.927	0.00053688
0.914	0.00058729
0.901	0.00063442
0.888	0.00067881
0.875	0.00072011
0.862	0.00075897
0.849	0.00079539
0.836	0.00082952
0.823	0.00086133
0.81	0.00089125
0.797	0.00091931
0.784	0.00094550
0.771	0.00097068
0.758	0.00099408
0.745	0.00101604
0.732	0.00103655
0.719	0.00105018
0.706	0.00105367
0.693	0.00107406
0.68	0.00109327
0.667	0.00111068
0.654	0.00112725
0.641	0.00114204
0.628	0.00115603
0.615	0.00116983
0.602	0.00118248
0.589	0.00119463
0.576	0.00120592
0.563	0.00121657
0.55	0.00122644
0.537	0.00123630
0.524	0.00124488
0.511	0.00125372
0.498	0.00126227
0.485	0.00127015
0.472	0.00127771
0.459	0.00128490
0.446	0.00129177
0.433	0.00129812
0.42	0.00130440
0.407	0.00131024
0.394	0.00131593
0.381	0.00132135
0.368	0.00132655
0.355	0.00133206
0.342	0.00133668
0.329	0.00134098
0.316	0.00134560
0.303	0.00134994
0.29	0.00135377
0.277	0.00135738
0.264	0.00136098
0.251	0.00136470
0.238	0.00136807
0.225	0.00137121
0.212	0.00137463
0.199	0.00137765
0.186	0.00138025
0.173	0.00138305
0.16	0.00138602
0.147	0.00138836
0.134	0.00139122
0.121	0.00139332
0.108	0.00139537
0.09500000	0.00139760
0.08200000	0.00139960
0.06900000	0.00140196
0.05600000	0.00140393
0.04300000	0.00140609
0.03000000	0.00140730
0.01700000	0.00140933
0.00400000	0.00141094
-0.00900000	0.00141314
-0.02200000	0.00141454
-0.03500000	0.00141591
-0.04800000	0.00141751
-0.06100000	0.00141875
-0.07400000	0.00141987
-0.08700000	0.00142155
-0.1	0.00142311