File: Data/IV_data/20240619 - Freezing PVSK #1 - JV Data/FZ_002-6_ITO+SnO2+PVSK+PEAI+Spiro+Carbon (RT)  2024-06-19 10-14-34.txt
Device Id	Operator	Recipe
FZ_002-6_ITO+SnO2+PVSK+PEAI+Spiro+Carbon (RT) 	Unknown	Jacob PVSKT _ 0.08cm2 (nature recipe).IV

Sample Area	Irradiance	Pre sweep delay	Bias Direction	Max Reverse Bias	Max Forward Bias	Num Sweep Points	Dwell Time	Current Limit	PVIV 10A I-AMP	Average	Dark Current	Rshunt V-Lo	Rshunt V-Hi
0.080000	1.0000	0.5000	0	-0.1000	1.2000	101	10	130	0	1	0	-0.6000	-0.1000

Voc V	Isc A	Jsc mA/cm2	Imax A	Vmax V	Pmax mW	Fill Factor	Efficiency	R at Voc	R at Isc	Power W	RShunt ohms	Cell Temp start	Cell Temp end	Exposure	Time	Date
0.991496	0.00170958	21.3697	0.00133669	0.616419	0.823962	48.6102	10.2995	207.618	5560.980	0.00127402	NaN	NaN	NaN	8.562	10:14:34	06/19/2024

Vmeas	Imeas
1.2	-0.00130667
1.187	-0.00122923
1.174	-0.00114179
1.161	-0.00104914
1.148	-0.00094046
1.135	-0.00084482
1.122	-0.00074976
1.109	-0.00065719
1.096	-0.00056796
1.083	-0.00048252
1.07	-0.00040147
1.057	-0.00032502
1.044	-0.00025323
1.031	-0.00018597
1.018	-0.00012263
1.005	-0.00005696
0.992	0.00000441
0.979	0.00006842
0.966	0.00012844
0.953	0.00018617
0.94	0.00024311
0.927	0.00029954
0.914	0.00035569
0.901	0.00041196
0.888	0.00046777
0.875	0.00052333
0.862	0.00057838
0.849	0.00063271
0.836	0.00068528
0.823	0.00073839
0.81	0.00078995
0.797	0.00083982
0.784	0.00088826
0.771	0.00093510
0.758	0.00098068
0.745	0.00102401
0.732	0.00105018
0.719	0.00105459
0.706	0.00110160
0.693	0.00114315
0.68	0.00118199
0.667	0.00121795
0.654	0.00125110
0.641	0.00128207
0.628	0.00131101
0.615	0.00133787
0.602	0.00136324
0.589	0.00138658
0.576	0.00140864
0.563	0.00142894
0.55	0.00144837
0.537	0.00146610
0.524	0.00148287
0.511	0.00149829
0.498	0.00151235
0.485	0.00152596
0.472	0.00153848
0.459	0.00155027
0.446	0.00156054
0.433	0.00157107
0.42	0.00158053
0.407	0.00158938
0.394	0.00159768
0.381	0.00160582
0.368	0.00161253
0.355	0.00161988
0.342	0.00162541
0.329	0.00163130
0.316	0.00163689
0.303	0.00164263
0.29	0.00164761
0.277	0.00165247
0.264	0.00165670
0.251	0.00166077
0.238	0.00166476
0.225	0.00166888
0.212	0.00167234
0.199	0.00167546
0.186	0.00167836
0.173	0.00168198
0.16	0.00168485
0.147	0.00168735
0.134	0.00168980
0.121	0.00169245
0.108	0.00169408
0.09500000	0.00169703
0.08200000	0.00169889
0.06900000	0.00170084
0.05600000	0.00170298
0.04300000	0.00170466
0.03000000	0.00170618
0.01700000	0.00170794
0.00400000	0.00170930
-0.00900000	0.00171264
-0.02200000	0.00171411
-0.03500000	0.00171468
-0.04800000	0.00171575
-0.06100000	0.00171675
-0.07400000	0.00171827
-0.08700000	0.00171915
-0.1	0.00172030