File: Data/IV_data/20240619 - Freezing PVSK #1 - JV Data/FZ_001-5_ITO+SnO2+PVSK+PEAI+Spiro+Carbon (RT)  2024-06-19 10-04-45.txt
Device Id	Operator	Recipe
FZ_001-5_ITO+SnO2+PVSK+PEAI+Spiro+Carbon (RT) 	Unknown	Jacob PVSKT _ 0.08cm2 (nature recipe).IV

Sample Area	Irradiance	Pre sweep delay	Bias Direction	Max Reverse Bias	Max Forward Bias	Num Sweep Points	Dwell Time	Current Limit	PVIV 10A I-AMP	Average	Dark Current	Rshunt V-Lo	Rshunt V-Hi
0.080000	1.0000	0.5000	0	-0.1000	1.2000	101	10	130	0	1	0	-0.6000	-0.1000

Voc V	Isc A	Jsc mA/cm2	Imax A	Vmax V	Pmax mW	Fill Factor	Efficiency	R at Voc	R at Isc	Power W	RShunt ohms	Cell Temp start	Cell Temp end	Exposure	Time	Date
0.426038	0.00099906	12.4882	0.00051784	0.220587	0.114228	26.8371	1.4279	394.045	479.653	0.00022250	NaN	NaN	NaN	8.562	10:04:45	06/19/2024

Vmeas	Imeas
1.2	-0.00439175
1.187	-0.00418452
1.174	-0.00393134
1.161	-0.00378389
1.148	-0.00361907
1.135	-0.00351985
1.122	-0.00341356
1.109	-0.00329868
1.096	-0.00317890
1.083	-0.00307284
1.07	-0.00297360
1.057	-0.00286995
1.044	-0.00277154
1.031	-0.00267550
1.018	-0.00258812
1.005	-0.00249086
0.992	-0.00240755
0.979	-0.00232133
0.966	-0.00224096
0.953	-0.00216509
0.94	-0.00208639
0.927	-0.00201107
0.914	-0.00194004
0.901	-0.00187227
0.888	-0.00179946
0.875	-0.00173020
0.862	-0.00166249
0.849	-0.00159465
0.836	-0.00152937
0.823	-0.00146159
0.81	-0.00139621
0.797	-0.00132873
0.784	-0.00126698
0.771	-0.00120742
0.758	-0.00114781
0.745	-0.00108823
0.732	-0.00103293
0.719	-0.00098129
0.706	-0.00092797
0.693	-0.00086777
0.68	-0.00081066
0.667	-0.00075713
0.654	-0.00070868
0.641	-0.00065854
0.628	-0.00061152
0.615	-0.00056540
0.602	-0.00052003
0.589	-0.00047548
0.576	-0.00043096
0.563	-0.00038584
0.55	-0.00034628
0.537	-0.00030443
0.524	-0.00026361
0.511	-0.00022566
0.498	-0.00018850
0.485	-0.00014973
0.472	-0.00011213
0.459	-0.00008091
0.446	-0.00004282
0.433	-0.00002730
0.42	0.00001037
0.407	0.00004822
0.394	0.00008541
0.381	0.00011367
0.368	0.00015148
0.355	0.00018556
0.342	0.00022014
0.329	0.00025344
0.316	0.00028649
0.303	0.00031908
0.29	0.00035148
0.277	0.00038303
0.264	0.00041503
0.251	0.00044553
0.238	0.00047677
0.225	0.00050743
0.212	0.00053807
0.199	0.00056798
0.186	0.00059788
0.173	0.00062660
0.16	0.00065575
0.147	0.00068471
0.134	0.00071330
0.121	0.00074174
0.108	0.00076979
0.09500000	0.00079829
0.08200000	0.00082636
0.06900000	0.00085399
0.05600000	0.00088154
0.04300000	0.00090901
0.03000000	0.00093637
0.01700000	0.00096360
0.00400000	0.00099039
-0.00900000	0.00101850
-0.02200000	0.00104458
-0.03500000	0.00106482
-0.04800000	0.00109247
-0.06100000	0.00111978
-0.07400000	0.00114745
-0.08700000	0.00117414
-0.1	0.00120083