File: Data/IV_data/20240619 - Freezing PVSK #1 - JV Data/FZ_002-5_ITO+SnO2+PVSK+PEAI+Spiro+Carbon (RT)  2024-06-19 10-13-04.txt
Device Id	Operator	Recipe
FZ_002-5_ITO+SnO2+PVSK+PEAI+Spiro+Carbon (RT) 	Unknown	Jacob PVSKT _ 0.08cm2 (nature recipe).IV

Sample Area	Irradiance	Pre sweep delay	Bias Direction	Max Reverse Bias	Max Forward Bias	Num Sweep Points	Dwell Time	Current Limit	PVIV 10A I-AMP	Average	Dark Current	Rshunt V-Lo	Rshunt V-Hi
0.080000	1.0000	0.5000	0	-0.1000	1.2000	101	10	130	0	1	0	-0.6000	-0.1000

Voc V	Isc A	Jsc mA/cm2	Imax A	Vmax V	Pmax mW	Fill Factor	Efficiency	R at Voc	R at Isc	Power W	RShunt ohms	Cell Temp start	Cell Temp end	Exposure	Time	Date
0.995686	0.00155881	19.4851	0.00100146	0.654783	0.655742	42.2492	8.1968	275.824	2829.774	0.00107810	NaN	NaN	NaN	8.359	10:13:04	06/19/2024

Vmeas	Imeas
1.2	-0.00102131
1.187	-0.00094783
1.174	-0.00087190
1.161	-0.00079411
1.148	-0.00071609
1.135	-0.00063888
1.122	-0.00056285
1.109	-0.00048955
1.096	-0.00041908
1.083	-0.00035192
1.07	-0.00028830
1.057	-0.00022829
1.044	-0.00017181
1.031	-0.00011864
1.018	-0.00006743
1.005	-0.00001908
0.992	0.00002719
0.979	0.00007164
0.966	0.00010845
0.953	0.00015363
0.94	0.00019732
0.927	0.00024004
0.914	0.00028223
0.901	0.00032394
0.888	0.00036531
0.875	0.00040645
0.862	0.00044732
0.849	0.00048782
0.836	0.00052784
0.823	0.00056773
0.81	0.00060686
0.797	0.00064554
0.784	0.00068358
0.771	0.00072069
0.758	0.00075707
0.745	0.00079242
0.732	0.00082607
0.719	0.00085927
0.706	0.00089131
0.693	0.00092222
0.68	0.00095204
0.667	0.00098041
0.654	0.00100753
0.641	0.00103362
0.628	0.00105018
0.615	0.00103476
0.602	0.00106656
0.589	0.00109378
0.576	0.00111891
0.563	0.00114220
0.55	0.00116418
0.537	0.00118491
0.524	0.00120463
0.511	0.00122320
0.498	0.00124078
0.485	0.00125734
0.472	0.00127306
0.459	0.00128841
0.446	0.00130258
0.433	0.00131646
0.42	0.00132883
0.407	0.00134173
0.394	0.00135365
0.381	0.00136525
0.368	0.00137640
0.355	0.00138661
0.342	0.00139701
0.329	0.00140636
0.316	0.00141557
0.303	0.00142468
0.29	0.00143311
0.277	0.00144154
0.264	0.00144954
0.251	0.00145694
0.238	0.00146437
0.225	0.00147072
0.212	0.00147755
0.199	0.00148437
0.186	0.00149058
0.173	0.00149696
0.16	0.00150264
0.147	0.00150842
0.134	0.00151377
0.121	0.00151912
0.108	0.00152448
0.09500000	0.00152923
0.08200000	0.00153410
0.06900000	0.00153875
0.05600000	0.00154292
0.04300000	0.00154734
0.03000000	0.00155093
0.01700000	0.00155542
0.00400000	0.00155958
-0.00900000	0.00156532
-0.02200000	0.00156830
-0.03500000	0.00157108
-0.04800000	0.00157463
-0.06100000	0.00157783
-0.07400000	0.00158050
-0.08700000	0.00158352
-0.1	0.00158665