File: Data/IV_data/20240619 - Freezing PVSK #1 - JV Data/FZ_004-4_ITO+SnO2+PVSK+PEAI+Spiro+Carbon (Dry Ice)  2024-06-19 10-38-28.txt
Device Id	Operator	Recipe
FZ_004-4_ITO+SnO2+PVSK+PEAI+Spiro+Carbon (Dry Ice) 	Unknown	Jacob PVSKT _ 0.08cm2 (nature recipe).IV

Sample Area	Irradiance	Pre sweep delay	Bias Direction	Max Reverse Bias	Max Forward Bias	Num Sweep Points	Dwell Time	Current Limit	PVIV 10A I-AMP	Average	Dark Current	Rshunt V-Lo	Rshunt V-Hi
0.080000	1.0000	0.5000	0	-0.1000	1.2000	101	10	130	0	1	0	-0.6000	-0.1000

Voc V	Isc A	Jsc mA/cm2	Imax A	Vmax V	Pmax mW	Fill Factor	Efficiency	R at Voc	R at Isc	Power W	RShunt ohms	Cell Temp start	Cell Temp end	Exposure	Time	Date
1.03944	0.00149852	18.7316	0.00120285	0.739661	0.889699	57.1187	11.1212	122.822	9391.406	0.00128569	NaN	NaN	NaN	8.375	10:38:28	06/19/2024

Vmeas	Imeas
1.2	-0.00148039
1.187	-0.00137792
1.174	-0.00126325
1.161	-0.00114108
1.148	-0.00101436
1.135	-0.00088589
1.122	-0.00075846
1.109	-0.00062974
1.096	-0.00050211
1.083	-0.00037683
1.07	-0.00025481
1.057	-0.00013657
1.044	-0.00002618
1.031	0.00008280
1.018	0.00017517
1.005	0.00027412
0.992	0.00036670
0.979	0.00045303
0.966	0.00053369
0.953	0.00060844
0.94	0.00067702
0.927	0.00073991
0.914	0.00079746
0.901	0.00085000
0.888	0.00089791
0.875	0.00094143
0.862	0.00098148
0.849	0.00101771
0.836	0.00104883
0.823	0.00103506
0.81	0.00107124
0.797	0.00110224
0.784	0.00112972
0.771	0.00115417
0.758	0.00117732
0.745	0.00119689
0.732	0.00121646
0.719	0.00123419
0.706	0.00124755
0.693	0.00126369
0.68	0.00127853
0.667	0.00129181
0.654	0.00130382
0.641	0.00131549
0.628	0.00132587
0.615	0.00133553
0.602	0.00134498
0.589	0.00135383
0.576	0.00136211
0.563	0.00137007
0.55	0.00137724
0.537	0.00138413
0.524	0.00139012
0.511	0.00139681
0.498	0.00140250
0.485	0.00140842
0.472	0.00141362
0.459	0.00141796
0.446	0.00142288
0.433	0.00142746
0.42	0.00143210
0.407	0.00143605
0.394	0.00143982
0.381	0.00144317
0.368	0.00144624
0.355	0.00144972
0.342	0.00145284
0.329	0.00145551
0.316	0.00145840
0.303	0.00146127
0.29	0.00146392
0.277	0.00146568
0.264	0.00146790
0.251	0.00147099
0.238	0.00147332
0.225	0.00147453
0.212	0.00147617
0.199	0.00147858
0.186	0.00148035
0.173	0.00148235
0.16	0.00148407
0.147	0.00148460
0.134	0.00148681
0.121	0.00148824
0.108	0.00148966
0.09500000	0.00149055
0.08200000	0.00149187
0.06900000	0.00149319
0.05600000	0.00149437
0.04300000	0.00149536
0.03000000	0.00149642
0.01700000	0.00149739
0.00400000	0.00149816
-0.00900000	0.00150001
-0.02200000	0.00150091
-0.03500000	0.00150122
-0.04800000	0.00150180
-0.06100000	0.00150296
-0.07400000	0.00150402
-0.08700000	0.00150469
-0.1	0.00150558