File: Data/IV_data/20240619 - Freezing PVSK #1 - JV Data/FZ_004-1_ITO+SnO2+PVSK+PEAI+Spiro+Carbon (Dry Ice)  2024-06-19 10-31-15.txt
Device Id	Operator	Recipe
FZ_004-1_ITO+SnO2+PVSK+PEAI+Spiro+Carbon (Dry Ice) 	Unknown	Jacob PVSKT _ 0.08cm2 (nature recipe).IV

Sample Area	Irradiance	Pre sweep delay	Bias Direction	Max Reverse Bias	Max Forward Bias	Num Sweep Points	Dwell Time	Current Limit	PVIV 10A I-AMP	Average	Dark Current	Rshunt V-Lo	Rshunt V-Hi
0.080000	1.0000	0.5000	0	-0.1000	1.2000	101	10	130	0	1	0	-0.6000	-0.1000

Voc V	Isc A	Jsc mA/cm2	Imax A	Vmax V	Pmax mW	Fill Factor	Efficiency	R at Voc	R at Isc	Power W	RShunt ohms	Cell Temp start	Cell Temp end	Exposure	Time	Date
1.03751	0.00140130	17.5163	0.00099568	0.74451	0.74129	50.9874	9.2661	160.33	4175.710	0.00112386	NaN	NaN	NaN	8.437	10:31:15	06/19/2024

Vmeas	Imeas
1.2	-0.00121639
1.187	-0.00113407
1.174	-0.00103711
1.161	-0.00093556
1.148	-0.00082915
1.135	-0.00072157
1.122	-0.00061434
1.109	-0.00050926
1.096	-0.00040645
1.083	-0.00030658
1.07	-0.00021030
1.057	-0.00011751
1.044	-0.00003117
1.031	0.00005389
1.018	0.00012795
1.005	0.00020469
0.992	0.00027636
0.979	0.00034321
0.966	0.00040590
0.953	0.00046394
0.94	0.00051785
0.927	0.00056778
0.914	0.00061419
0.901	0.00065737
0.888	0.00069745
0.875	0.00073454
0.862	0.00076917
0.849	0.00080125
0.836	0.00083128
0.823	0.00085946
0.81	0.00088585
0.797	0.00091052
0.784	0.00093385
0.771	0.00095571
0.758	0.00097645
0.745	0.00099585
0.732	0.00101414
0.719	0.00103157
0.706	0.00104833
0.693	0.00104829
0.68	0.00106585
0.667	0.00108218
0.654	0.00109704
0.641	0.00111123
0.628	0.00112438
0.615	0.00113700
0.602	0.00114888
0.589	0.00116049
0.576	0.00117114
0.563	0.00118127
0.55	0.00119122
0.537	0.00120089
0.524	0.00121043
0.511	0.00121914
0.498	0.00122717
0.485	0.00123518
0.472	0.00124311
0.459	0.00125050
0.446	0.00125748
0.433	0.00126454
0.42	0.00127100
0.407	0.00127766
0.394	0.00128390
0.381	0.00128999
0.368	0.00129551
0.355	0.00130112
0.342	0.00130684
0.329	0.00131215
0.316	0.00131681
0.303	0.00132132
0.29	0.00132647
0.277	0.00133058
0.264	0.00133513
0.251	0.00133899
0.238	0.00134347
0.225	0.00134752
0.212	0.00135193
0.199	0.00135534
0.186	0.00135907
0.173	0.00136250
0.16	0.00136619
0.147	0.00136915
0.134	0.00137271
0.121	0.00137604
0.108	0.00137893
0.09500000	0.00138203
0.08200000	0.00138481
0.06900000	0.00138793
0.05600000	0.00139053
0.04300000	0.00139338
0.03000000	0.00139559
0.01700000	0.00139837
0.00400000	0.00140088
-0.00900000	0.00140430
-0.02200000	0.00140649
-0.03500000	0.00140878
-0.04800000	0.00141073
-0.06100000	0.00141299
-0.07400000	0.00141552
-0.08700000	0.00141694
-0.1	0.00141915