File: Data/IV_data/20240619 - Freezing PVSK #1 - JV Data/FZ_005-1_ITO+SnO2+PVSK+PEAI+Spiro+Carbon (Dry Ice)  2024-06-19 10-49-22.txt
Device Id	Operator	Recipe
FZ_005-1_ITO+SnO2+PVSK+PEAI+Spiro+Carbon (Dry Ice) 	Unknown	Jacob PVSKT _ 0.08cm2 (nature recipe).IV

Sample Area	Irradiance	Pre sweep delay	Bias Direction	Max Reverse Bias	Max Forward Bias	Num Sweep Points	Dwell Time	Current Limit	PVIV 10A I-AMP	Average	Dark Current	Rshunt V-Lo	Rshunt V-Hi
0.080000	1.0000	0.5000	0	-0.1000	1.2000	101	10	130	0	1	0	-0.6000	-0.1000

Voc V	Isc A	Jsc mA/cm2	Imax A	Vmax V	Pmax mW	Fill Factor	Efficiency	R at Voc	R at Isc	Power W	RShunt ohms	Cell Temp start	Cell Temp end	Exposure	Time	Date
1.04005	0.00136467	17.0584	0.00091121	0.66544	0.606353	42.7213	7.5794	264.914	2923.778	0.00099520	NaN	NaN	NaN	8.500	10:49:22	06/19/2024

Vmeas	Imeas
1.2	-0.00068262
1.187	-0.00062789
1.174	-0.00056856
1.161	-0.00050762
1.148	-0.00044780
1.135	-0.00038832
1.122	-0.00032969
1.109	-0.00027209
1.096	-0.00021593
1.083	-0.00016096
1.07	-0.00010728
1.057	-0.00005561
1.044	-0.00000542
1.031	0.00004282
1.018	0.00009132
1.005	0.00013531
0.992	0.00018132
0.979	0.00022528
0.966	0.00026766
0.953	0.00030853
0.94	0.00034778
0.927	0.00038573
0.914	0.00042217
0.901	0.00045739
0.888	0.00049095
0.875	0.00052341
0.862	0.00055467
0.849	0.00058478
0.836	0.00061393
0.823	0.00064200
0.81	0.00066906
0.797	0.00069501
0.784	0.00072024
0.771	0.00074457
0.758	0.00076790
0.745	0.00079048
0.732	0.00081227
0.719	0.00083321
0.706	0.00085238
0.693	0.00087269
0.68	0.00089180
0.667	0.00091013
0.654	0.00092795
0.641	0.00094483
0.628	0.00096075
0.615	0.00097704
0.602	0.00099286
0.589	0.00100804
0.576	0.00102246
0.563	0.00103646
0.55	0.00104966
0.537	0.00104874
0.524	0.00106336
0.511	0.00107689
0.498	0.00108974
0.485	0.00110248
0.472	0.00111465
0.459	0.00112629
0.446	0.00113727
0.433	0.00114816
0.42	0.00115880
0.407	0.00116890
0.394	0.00117839
0.381	0.00118769
0.368	0.00119631
0.355	0.00120505
0.342	0.00121316
0.329	0.00122146
0.316	0.00122916
0.303	0.00123701
0.29	0.00124486
0.277	0.00125223
0.264	0.00125911
0.251	0.00126624
0.238	0.00127311
0.225	0.00127918
0.212	0.00128574
0.199	0.00129205
0.186	0.00129792
0.173	0.00130361
0.16	0.00130884
0.147	0.00131469
0.134	0.00131990
0.121	0.00132540
0.108	0.00133023
0.09500000	0.00133477
0.08200000	0.00133954
0.06900000	0.00134453
0.05600000	0.00134955
0.04300000	0.00135374
0.03000000	0.00135785
0.01700000	0.00136182
0.00400000	0.00136561
-0.00900000	0.00136969
-0.02200000	0.00137312
-0.03500000	0.00137648
-0.04800000	0.00137989
-0.06100000	0.00138335
-0.07400000	0.00138674
-0.08700000	0.00138998
-0.1	0.00139297