File: Data/IV_data/20240619 - Freezing PVSK #1 - JV Data/FZ_008-2_ITO+SnO2+PVSK+PEAI+Spiro+Carbon (LN2)  2024-06-19 11-22-46.txt
Device Id	Operator	Recipe
FZ_008-2_ITO+SnO2+PVSK+PEAI+Spiro+Carbon (LN2) 	Unknown	Jacob PVSKT _ 0.08cm2 (nature recipe).IV

Sample Area	Irradiance	Pre sweep delay	Bias Direction	Max Reverse Bias	Max Forward Bias	Num Sweep Points	Dwell Time	Current Limit	PVIV 10A I-AMP	Average	Dark Current	Rshunt V-Lo	Rshunt V-Hi
0.080000	1.0000	0.5000	0	-0.1000	1.2000	101	10	130	0	1	0	-0.6000	-0.1000

Voc V	Isc A	Jsc mA/cm2	Imax A	Vmax V	Pmax mW	Fill Factor	Efficiency	R at Voc	R at Isc	Power W	RShunt ohms	Cell Temp start	Cell Temp end	Exposure	Time	Date
1.00894	0.00097377	12.1721	0.00079568	0.772938	0.615012	62.5979	7.6876	143.06	15888.332	0.00083940	NaN	NaN	NaN	8.219	11:22:46	06/19/2024

Vmeas	Imeas
1.2	-0.00187144
1.187	-0.00173111
1.174	-0.00158677
1.161	-0.00144111
1.148	-0.00129622
1.135	-0.00115297
1.122	-0.00101228
1.109	-0.00087364
1.096	-0.00074086
1.083	-0.00061244
1.07	-0.00048898
1.057	-0.00037053
1.044	-0.00025807
1.031	-0.00015120
1.018	-0.00005703
1.005	0.00003840
0.992	0.00011470
0.979	0.00019835
0.966	0.00027414
0.953	0.00034235
0.94	0.00040386
0.927	0.00045923
0.914	0.00050865
0.901	0.00055291
0.888	0.00059192
0.875	0.00062704
0.862	0.00065796
0.849	0.00068548
0.836	0.00070964
0.823	0.00073119
0.81	0.00075092
0.797	0.00076851
0.784	0.00078394
0.771	0.00079781
0.758	0.00081011
0.745	0.00082115
0.732	0.00083163
0.719	0.00084078
0.706	0.00084967
0.693	0.00085708
0.68	0.00086388
0.667	0.00087013
0.654	0.00087640
0.641	0.00088212
0.628	0.00088670
0.615	0.00089137
0.602	0.00089600
0.589	0.00090019
0.576	0.00090389
0.563	0.00090754
0.55	0.00091112
0.537	0.00091408
0.524	0.00091794
0.511	0.00092043
0.498	0.00092332
0.485	0.00092606
0.472	0.00092867
0.459	0.00093093
0.446	0.00093305
0.433	0.00093542
0.42	0.00093708
0.407	0.00093912
0.394	0.00094122
0.381	0.00094320
0.368	0.00094462
0.355	0.00094618
0.342	0.00094796
0.329	0.00094912
0.316	0.00095065
0.303	0.00095216
0.29	0.00095336
0.277	0.00095464
0.264	0.00095626
0.251	0.00095724
0.238	0.00095821
0.225	0.00095942
0.212	0.00096037
0.199	0.00096142
0.186	0.00096245
0.173	0.00096388
0.16	0.00096449
0.147	0.00096527
0.134	0.00096621
0.121	0.00096723
0.108	0.00096781
0.09500000	0.00096927
0.08200000	0.00096965
0.06900000	0.00097014
0.05600000	0.00097125
0.04300000	0.00097218
0.03000000	0.00097250
0.01700000	0.00097291
0.00400000	0.00097340
-0.00900000	0.00097461
-0.02200000	0.00097520
-0.03500000	0.00097569
-0.04800000	0.00097619
-0.06100000	0.00097677
-0.07400000	0.00097729
-0.08700000	0.00097771
-0.1	0.00097854