File: Data/IV_data/20240619 - Freezing PVSK #1 - JV Data/FZ_002-4_ITO+SnO2+PVSK+PEAI+Spiro+Carbon (RT)  2024-06-19 10-12-20.txt
Device Id	Operator	Recipe
FZ_002-4_ITO+SnO2+PVSK+PEAI+Spiro+Carbon (RT) 	Unknown	Jacob PVSKT _ 0.08cm2 (nature recipe).IV

Sample Area	Irradiance	Pre sweep delay	Bias Direction	Max Reverse Bias	Max Forward Bias	Num Sweep Points	Dwell Time	Current Limit	PVIV 10A I-AMP	Average	Dark Current	Rshunt V-Lo	Rshunt V-Hi
0.080000	1.0000	0.5000	0	-0.1000	1.2000	101	10	130	0	1	0	-0.6000	-0.1000

Voc V	Isc A	Jsc mA/cm2	Imax A	Vmax V	Pmax mW	Fill Factor	Efficiency	R at Voc	R at Isc	Power W	RShunt ohms	Cell Temp start	Cell Temp end	Exposure	Time	Date
0.746567	0.00155799	19.4749	0.00097955	0.460553	0.451137	38.7860	5.6392	315.421	1473.207	0.00075668	NaN	NaN	NaN	8.562	10:12:20	06/19/2024

Vmeas	Imeas
1.2	-0.00175404
1.187	-0.00171262
1.174	-0.00168310
1.161	-0.00162099
1.148	-0.00155323
1.135	-0.00147891
1.122	-0.00140807
1.109	-0.00132854
1.096	-0.00125772
1.083	-0.00118468
1.07	-0.00110122
1.057	-0.00102550
1.044	-0.00094204
1.031	-0.00088524
1.018	-0.00082160
1.005	-0.00076194
0.992	-0.00070814
0.979	-0.00065079
0.966	-0.00059558
0.953	-0.00055211
0.94	-0.00051300
0.927	-0.00047621
0.914	-0.00044545
0.901	-0.00040518
0.888	-0.00036887
0.875	-0.00033648
0.862	-0.00030604
0.849	-0.00027571
0.836	-0.00024923
0.823	-0.00021634
0.81	-0.00018721
0.797	-0.00014944
0.784	-0.00011736
0.771	-0.00008246
0.758	-0.00004344
0.745	-0.00000651
0.732	0.00003162
0.719	0.00008295
0.706	0.00012204
0.693	0.00017472
0.68	0.00022974
0.667	0.00028450
0.654	0.00033724
0.641	0.00038860
0.628	0.00043924
0.615	0.00048861
0.602	0.00053595
0.589	0.00058277
0.576	0.00063092
0.563	0.00067685
0.55	0.00072040
0.537	0.00076254
0.524	0.00080340
0.511	0.00084129
0.498	0.00087853
0.485	0.00091263
0.472	0.00095078
0.459	0.00098501
0.446	0.00101724
0.433	0.00104678
0.42	0.00101633
0.407	0.00105335
0.394	0.00108702
0.381	0.00111742
0.368	0.00114576
0.355	0.00117204
0.342	0.00119695
0.329	0.00121987
0.316	0.00124157
0.303	0.00126256
0.29	0.00128209
0.277	0.00130145
0.264	0.00131901
0.251	0.00133522
0.238	0.00135197
0.225	0.00136722
0.212	0.00138291
0.199	0.00139737
0.186	0.00141045
0.173	0.00142306
0.16	0.00143498
0.147	0.00144710
0.134	0.00145910
0.121	0.00147029
0.108	0.00148160
0.09500000	0.00149171
0.08200000	0.00150205
0.06900000	0.00151230
0.05600000	0.00152198
0.04300000	0.00153119
0.03000000	0.00154042
0.01700000	0.00154967
0.00400000	0.00155791
-0.00900000	0.00156701
-0.02200000	0.00157505
-0.03500000	0.00158284
-0.04800000	0.00159114
-0.06100000	0.00159854
-0.07400000	0.00160646
-0.08700000	0.00161382
-0.1	0.00162155