File: Data/IV_data/20240619 - Freezing PVSK #1 - JV Data/FZ_002-2_ITO+SnO2+PVSK+PEAI+Spiro+Carbon (RT)  2024-06-19 10-09-15.txt
Device Id	Operator	Recipe
FZ_002-2_ITO+SnO2+PVSK+PEAI+Spiro+Carbon (RT) 	Unknown	Jacob PVSKT _ 0.08cm2 (nature recipe).IV

Sample Area	Irradiance	Pre sweep delay	Bias Direction	Max Reverse Bias	Max Forward Bias	Num Sweep Points	Dwell Time	Current Limit	PVIV 10A I-AMP	Average	Dark Current	Rshunt V-Lo	Rshunt V-Hi
0.080000	1.0000	0.5000	0	-0.1000	1.2000	101	10	130	0	1	0	-0.6000	-0.1000

Voc V	Isc A	Jsc mA/cm2	Imax A	Vmax V	Pmax mW	Fill Factor	Efficiency	R at Voc	R at Isc	Power W	RShunt ohms	Cell Temp start	Cell Temp end	Exposure	Time	Date
1.05484	0.00158391	19.7988	0.00118307	0.706668	0.836039	50.0393	10.4505	177.084	4864.430	0.00128547	NaN	NaN	NaN	8.484	10:09:15	06/19/2024

Vmeas	Imeas
1.2	-0.00086817
1.187	-0.00080118
1.174	-0.00072753
1.161	-0.00064932
1.148	-0.00056848
1.135	-0.00048611
1.122	-0.00040298
1.109	-0.00032040
1.096	-0.00023864
1.083	-0.00015805
1.07	-0.00008028
1.057	-0.00000473
1.044	0.00006738
1.031	0.00013600
1.018	0.00020774
1.005	0.00027676
0.992	0.00034332
0.979	0.00040676
0.966	0.00046794
0.953	0.00052607
0.94	0.00058134
0.927	0.00063406
0.914	0.00068403
0.901	0.00073139
0.888	0.00077614
0.875	0.00081854
0.862	0.00085856
0.849	0.00089641
0.836	0.00093198
0.823	0.00096605
0.81	0.00099796
0.797	0.00102852
0.784	0.00105018
0.771	0.00105790
0.758	0.00108733
0.745	0.00111488
0.732	0.00114035
0.719	0.00116398
0.706	0.00118629
0.693	0.00120698
0.68	0.00122678
0.667	0.00124551
0.654	0.00126296
0.641	0.00127973
0.628	0.00129521
0.615	0.00131015
0.602	0.00132431
0.589	0.00133741
0.576	0.00135025
0.563	0.00136220
0.55	0.00137309
0.537	0.00138441
0.524	0.00139523
0.511	0.00140512
0.498	0.00141448
0.485	0.00142386
0.472	0.00143231
0.459	0.00144049
0.446	0.00144756
0.433	0.00145532
0.42	0.00146281
0.407	0.00146950
0.394	0.00147603
0.381	0.00148193
0.368	0.00148790
0.355	0.00149369
0.342	0.00149881
0.329	0.00150378
0.316	0.00150953
0.303	0.00151384
0.29	0.00151852
0.277	0.00152311
0.264	0.00152698
0.251	0.00153075
0.238	0.00153530
0.225	0.00153932
0.212	0.00154261
0.199	0.00154559
0.186	0.00154856
0.173	0.00155218
0.16	0.00155506
0.147	0.00155833
0.134	0.00156139
0.121	0.00156353
0.108	0.00156609
0.09500000	0.00156883
0.08200000	0.00157117
0.06900000	0.00157359
0.05600000	0.00157552
0.04300000	0.00157769
0.03000000	0.00157941
0.01700000	0.00158214
0.00400000	0.00158411
-0.00900000	0.00158590
-0.02200000	0.00158728
-0.03500000	0.00158889
-0.04800000	0.00159126
-0.06100000	0.00159291
-0.07400000	0.00159434
-0.08700000	0.00159569
-0.1	0.00159680