File: Data/IV_data/20240619 - Freezing PVSK #1 - JV Data/FZ_007-4_ITO+SnO2+PVSK+PEAI+Spiro+Carbon (LN2)  2024-06-19 11-18-20.txt
Device Id	Operator	Recipe
FZ_007-4_ITO+SnO2+PVSK+PEAI+Spiro+Carbon (LN2) 	Unknown	Jacob PVSKT _ 0.08cm2 (nature recipe).IV

Sample Area	Irradiance	Pre sweep delay	Bias Direction	Max Reverse Bias	Max Forward Bias	Num Sweep Points	Dwell Time	Current Limit	PVIV 10A I-AMP	Average	Dark Current	Rshunt V-Lo	Rshunt V-Hi
0.080000	1.0000	0.5000	0	-0.1000	1.2000	101	10	130	0	1	0	-0.6000	-0.1000

Voc V	Isc A	Jsc mA/cm2	Imax A	Vmax V	Pmax mW	Fill Factor	Efficiency	R at Voc	R at Isc	Power W	RShunt ohms	Cell Temp start	Cell Temp end	Exposure	Time	Date
1.00923	0.00107104	13.388	0.00089564	0.775293	0.69438	64.2397	8.6798	128.315	16356.067	0.00093406	NaN	NaN	NaN	8.359	11:18:20	06/19/2024

Vmeas	Imeas
1.2	-0.00227383
1.187	-0.00208324
1.174	-0.00189244
1.161	-0.00170310
1.148	-0.00151831
1.135	-0.00133888
1.122	-0.00116554
1.109	-0.00099474
1.096	-0.00083762
1.083	-0.00068730
1.07	-0.00054500
1.057	-0.00041066
1.044	-0.00028458
1.031	-0.00016670
1.018	-0.00006113
1.005	0.00004395
0.992	0.00013085
0.979	0.00022375
0.966	0.00030764
0.953	0.00038371
0.94	0.00045287
0.927	0.00051525
0.914	0.00057154
0.901	0.00062192
0.888	0.00066686
0.875	0.00070682
0.862	0.00074255
0.849	0.00077420
0.836	0.00080175
0.823	0.00082663
0.81	0.00084867
0.797	0.00086778
0.784	0.00088521
0.771	0.00090043
0.758	0.00091397
0.745	0.00092645
0.732	0.00093774
0.719	0.00094707
0.706	0.00095576
0.693	0.00096371
0.68	0.00097103
0.667	0.00097803
0.654	0.00098389
0.641	0.00098933
0.628	0.00099445
0.615	0.00099913
0.602	0.00100342
0.589	0.00100731
0.576	0.00101128
0.563	0.00101477
0.55	0.00101803
0.537	0.00102104
0.524	0.00102369
0.511	0.00102632
0.498	0.00102891
0.485	0.00103128
0.472	0.00103319
0.459	0.00103527
0.446	0.00103764
0.433	0.00103980
0.42	0.00104125
0.407	0.00104296
0.394	0.00104426
0.381	0.00104663
0.368	0.00104794
0.355	0.00104899
0.342	0.00104997
0.329	0.00105019
0.316	0.00105019
0.303	0.00104816
0.29	0.00104977
0.277	0.00105188
0.264	0.00105337
0.251	0.00105483
0.238	0.00105611
0.225	0.00105753
0.212	0.00105862
0.199	0.00105924
0.186	0.00106050
0.173	0.00106102
0.16	0.00106234
0.147	0.00106331
0.134	0.00106428
0.121	0.00106472
0.108	0.00106580
0.09500000	0.00106687
0.08200000	0.00106735
0.06900000	0.00106790
0.05600000	0.00106855
0.04300000	0.00106938
0.03000000	0.00107011
0.01700000	0.00107007
0.00400000	0.00107058
-0.00900000	0.00107234
-0.02200000	0.00107196
-0.03500000	0.00107263
-0.04800000	0.00107339
-0.06100000	0.00107381
-0.07400000	0.00107412
-0.08700000	0.00107474
-0.1	0.00107504