File: Data/IV_data/20240619 - Freezing PVSK #1 - JV Data/FZ_005-2_ITO+SnO2+PVSK+PEAI+Spiro+Carbon (Dry Ice)  2024-06-19 10-51-50.txt
Device Id	Operator	Recipe
FZ_005-2_ITO+SnO2+PVSK+PEAI+Spiro+Carbon (Dry Ice) 	Unknown	Jacob PVSKT _ 0.08cm2 (nature recipe).IV

Sample Area	Irradiance	Pre sweep delay	Bias Direction	Max Reverse Bias	Max Forward Bias	Num Sweep Points	Dwell Time	Current Limit	PVIV 10A I-AMP	Average	Dark Current	Rshunt V-Lo	Rshunt V-Hi
0.080000	1.0000	0.5000	0	-0.1000	1.2000	101	10	130	0	1	0	-0.6000	-0.1000

Voc V	Isc A	Jsc mA/cm2	Imax A	Vmax V	Pmax mW	Fill Factor	Efficiency	R at Voc	R at Isc	Power W	RShunt ohms	Cell Temp start	Cell Temp end	Exposure	Time	Date
1.04207	0.00138157	17.2696	0.00093615	0.672094	0.629181	43.7024	7.8648	232.62	3185.027	0.00102532	NaN	NaN	NaN	8.500	10:51:50	06/19/2024

Vmeas	Imeas
1.2	-0.00078588
1.187	-0.00072508
1.174	-0.00065855
1.161	-0.00058918
1.148	-0.00051901
1.135	-0.00044892
1.122	-0.00037912
1.109	-0.00031061
1.096	-0.00024371
1.083	-0.00017837
1.07	-0.00011516
1.057	-0.00005474
1.044	0.00000300
1.031	0.00005732
1.018	0.00010852
1.005	0.00016173
0.992	0.00021212
0.979	0.00025995
0.966	0.00030571
0.953	0.00034901
0.94	0.00039032
0.927	0.00042952
0.914	0.00046683
0.901	0.00050239
0.888	0.00053628
0.875	0.00056867
0.862	0.00059980
0.849	0.00062917
0.836	0.00065751
0.823	0.00068490
0.81	0.00071102
0.797	0.00073618
0.784	0.00076030
0.771	0.00078350
0.758	0.00080587
0.745	0.00082715
0.732	0.00084866
0.719	0.00086877
0.706	0.00088673
0.693	0.00090623
0.68	0.00092538
0.667	0.00094330
0.654	0.00096052
0.641	0.00097718
0.628	0.00099328
0.615	0.00100917
0.602	0.00102415
0.589	0.00103879
0.576	0.00105019
0.563	0.00104175
0.55	0.00106000
0.537	0.00107553
0.524	0.00108969
0.511	0.00110342
0.498	0.00111659
0.485	0.00112897
0.472	0.00114084
0.459	0.00115273
0.446	0.00116296
0.433	0.00117422
0.42	0.00118433
0.407	0.00119477
0.394	0.00120445
0.381	0.00121353
0.368	0.00122281
0.355	0.00123109
0.342	0.00123864
0.329	0.00124707
0.316	0.00125517
0.303	0.00126273
0.29	0.00127024
0.277	0.00127756
0.264	0.00128432
0.251	0.00129045
0.238	0.00129644
0.225	0.00130321
0.212	0.00130888
0.199	0.00131517
0.186	0.00132118
0.173	0.00132632
0.16	0.00133154
0.147	0.00133718
0.134	0.00134176
0.121	0.00134637
0.108	0.00135086
0.09500000	0.00135522
0.08200000	0.00136012
0.06900000	0.00136385
0.05600000	0.00136791
0.04300000	0.00137168
0.03000000	0.00137540
0.01700000	0.00137915
0.00400000	0.00138292
-0.00900000	0.00138600
-0.02200000	0.00138893
-0.03500000	0.00139223
-0.04800000	0.00139519
-0.06100000	0.00139837
-0.07400000	0.00140087
-0.08700000	0.00140373
-0.1	0.00140656