File: Data/IV_data/20240619 - Freezing PVSK #1 - JV Data/FZ_006-5_ITO+SnO2+PVSK+PEAI+Spiro+Carbon (Dry Ice)  2024-06-19 11-12-04.txt
Device Id	Operator	Recipe
FZ_006-5_ITO+SnO2+PVSK+PEAI+Spiro+Carbon (Dry Ice) 	Unknown	Jacob PVSKT _ 0.08cm2 (nature recipe).IV

Sample Area	Irradiance	Pre sweep delay	Bias Direction	Max Reverse Bias	Max Forward Bias	Num Sweep Points	Dwell Time	Current Limit	PVIV 10A I-AMP	Average	Dark Current	Rshunt V-Lo	Rshunt V-Hi
0.080000	1.0000	0.5000	0	-0.1000	1.2000	101	10	130	0	1	0	-0.6000	-0.1000

Voc V	Isc A	Jsc mA/cm2	Imax A	Vmax V	Pmax mW	Fill Factor	Efficiency	R at Voc	R at Isc	Power W	RShunt ohms	Cell Temp start	Cell Temp end	Exposure	Time	Date
1.04185	0.00150703	18.8379	0.00118242	0.736321	0.870644	55.4512	10.8830	128.56	8235.984	0.00127937	NaN	NaN	NaN	8.484	11:12:04	06/19/2024

Vmeas	Imeas
1.2	-0.00146390
1.187	-0.00135770
1.174	-0.00123837
1.161	-0.00111195
1.148	-0.00098403
1.135	-0.00085466
1.122	-0.00072339
1.109	-0.00059397
1.096	-0.00046716
1.083	-0.00034385
1.07	-0.00022454
1.057	-0.00010976
1.044	-0.00000396
1.031	0.00009435
1.018	0.00018632
1.005	0.00028134
0.992	0.00036963
0.979	0.00045163
0.966	0.00052804
0.953	0.00059841
0.94	0.00066235
0.927	0.00072226
0.914	0.00077697
0.901	0.00082674
0.888	0.00087274
0.875	0.00091490
0.862	0.00095296
0.849	0.00098834
0.836	0.00102089
0.823	0.00104943
0.81	0.00103860
0.797	0.00107185
0.784	0.00110118
0.771	0.00112732
0.758	0.00115085
0.745	0.00117233
0.732	0.00119084
0.719	0.00121006
0.706	0.00122744
0.693	0.00124339
0.68	0.00125894
0.667	0.00127360
0.654	0.00128649
0.641	0.00129881
0.628	0.00130993
0.615	0.00132104
0.602	0.00133198
0.589	0.00134173
0.576	0.00135103
0.563	0.00135938
0.55	0.00136719
0.537	0.00137518
0.524	0.00138330
0.511	0.00139074
0.498	0.00139661
0.485	0.00140248
0.472	0.00140866
0.459	0.00141481
0.446	0.00142031
0.433	0.00142518
0.42	0.00143014
0.407	0.00143478
0.394	0.00143919
0.381	0.00144369
0.368	0.00144712
0.355	0.00145115
0.342	0.00145377
0.329	0.00145742
0.316	0.00146070
0.303	0.00146375
0.29	0.00146722
0.277	0.00147027
0.264	0.00147272
0.251	0.00147531
0.238	0.00147727
0.225	0.00147992
0.212	0.00148206
0.199	0.00148424
0.186	0.00148646
0.173	0.00148842
0.16	0.00148970
0.147	0.00149167
0.134	0.00149369
0.121	0.00149526
0.108	0.00149699
0.09500000	0.00149856
0.08200000	0.00149985
0.06900000	0.00150118
0.05600000	0.00150252
0.04300000	0.00150342
0.03000000	0.00150465
0.01700000	0.00150558
0.00400000	0.00150713
-0.00900000	0.00150881
-0.02200000	0.00150957
-0.03500000	0.00151005
-0.04800000	0.00151124
-0.06100000	0.00151180
-0.07400000	0.00151316
-0.08700000	0.00151366
-0.1	0.00151455