File: Data/IV_data/2024-05-02/A1-1_ITO+SnO2+PVSK+C6Br+Spiro+Carbon (Air Quench)  2024-04-18 20-16-15 2024-05-06 19-11-35.txt
Device Id	Operator	Recipe
A1-1_ITO+SnO2+PVSK+C6Br+Spiro+Carbon (Air Quench)  2024-04-18 20-16-15	Unknown	Jacob PVSKT _ 0.077cm^2 (nature recipe).IV

Sample Area	Irradiance	Pre sweep delay	Bias Direction	Max Reverse Bias	Max Forward Bias	Num Sweep Points	Dwell Time	Current Limit	PVIV 10A I-AMP	Average	Dark Current	Rshunt V-Lo	Rshunt V-Hi
0.077170	1.0000	0.5000	0	-0.1000	1.2000	101	10	130	0	1	0	-0.6000	-0.1000

Voc V	Isc A	Jsc mA/cm2	Imax A	Vmax V	Pmax mW	Fill Factor	Efficiency	R at Voc	R at Isc	Power W	RShunt ohms	Cell Temp start	Cell Temp end	Exposure	Time	Date
1.01801	0.00146359	18.9658	0.00099346	0.608357	0.60438	40.5637	7.8318	376.136	3374.370	0.00100442	NaN	-7.024	NaN	8.656	19:11:35	05/06/2024

Vmeas	Imeas
1.2	-0.00069647
1.187	-0.00069515
1.174	-0.00061126
1.161	-0.00052358
1.148	-0.00044379
1.135	-0.00038513
1.122	-0.00031393
1.109	-0.00026430
1.096	-0.00021833
1.083	-0.00017168
1.07	-0.00012955
1.057	-0.00008667
1.044	-0.00004794
1.031	-0.00002279
1.018	0.00001331
1.005	0.00004353
0.992	0.00007061
0.979	0.00010461
0.966	0.00013284
0.953	0.00016658
0.94	0.00019666
0.927	0.00022807
0.914	0.00025867
0.901	0.00029052
0.888	0.00032614
0.875	0.00035963
0.862	0.00039377
0.849	0.00042863
0.836	0.00046396
0.823	0.00050001
0.81	0.00053395
0.797	0.00056955
0.784	0.00060054
0.771	0.00063628
0.758	0.00066906
0.745	0.00070151
0.732	0.00073399
0.719	0.00076423
0.706	0.00079623
0.693	0.00082542
0.68	0.00085453
0.667	0.00088097
0.654	0.00090785
0.641	0.00093344
0.628	0.00095876
0.615	0.00098463
0.602	0.00100642
0.589	0.00102822
0.576	0.00104897
0.563	0.00104923
0.55	0.00107227
0.537	0.00109367
0.524	0.00111392
0.511	0.00113271
0.498	0.00115044
0.485	0.00116797
0.472	0.00118314
0.459	0.00119798
0.446	0.00121308
0.433	0.00122752
0.42	0.00124128
0.407	0.00125542
0.394	0.00126624
0.381	0.00127789
0.368	0.00128979
0.355	0.00130059
0.342	0.00131162
0.329	0.00132181
0.316	0.00133002
0.303	0.00133960
0.29	0.00134925
0.277	0.00135766
0.264	0.00136537
0.251	0.00137342
0.238	0.00138021
0.225	0.00138802
0.212	0.00139501
0.199	0.00140085
0.186	0.00140708
0.173	0.00141289
0.16	0.00141811
0.147	0.00142367
0.134	0.00142813
0.121	0.00143252
0.108	0.00143673
0.09500000	0.00144114
0.08200000	0.00144490
0.06900000	0.00144926
0.05600000	0.00145259
0.04300000	0.00145671
0.03000000	0.00145940
0.01700000	0.00146270
0.00400000	0.00146522
-0.00900000	0.00146814
-0.02200000	0.00147041
-0.03500000	0.00147289
-0.04800000	0.00147519
-0.06100000	0.00147815
-0.07400000	0.00147967
-0.08700000	0.00148161
-0.1	0.00148361