File: Data/IV_data/2024-05-02/A1-2_ITO+SnO2+PVSK+C6Br+Spiro+Carbon (Air Quench)  2024-04-18 20-16-15 2024-05-06 19-13-18.txt
Device Id	Operator	Recipe
A1-2_ITO+SnO2+PVSK+C6Br+Spiro+Carbon (Air Quench)  2024-04-18 20-16-15	Unknown	Jacob PVSKT _ 0.077cm^2 (nature recipe).IV

Sample Area	Irradiance	Pre sweep delay	Bias Direction	Max Reverse Bias	Max Forward Bias	Num Sweep Points	Dwell Time	Current Limit	PVIV 10A I-AMP	Average	Dark Current	Rshunt V-Lo	Rshunt V-Hi
0.077170	1.0000	0.5000	0	-0.1000	1.2000	101	10	130	0	1	0	-0.6000	-0.1000

Voc V	Isc A	Jsc mA/cm2	Imax A	Vmax V	Pmax mW	Fill Factor	Efficiency	R at Voc	R at Isc	Power W	RShunt ohms	Cell Temp start	Cell Temp end	Exposure	Time	Date
1.07388	0.00157403	20.397	0.00104124	0.642541	0.669038	39.5806	8.6697	318.243	3375.832	0.00113707	NaN	NaN	NaN	8.500	19:13:18	05/06/2024

Vmeas	Imeas
1.2	-0.00054231
1.187	-0.00047047
1.174	-0.00039896
1.161	-0.00033048
1.148	-0.00026513
1.135	-0.00020468
1.122	-0.00014829
1.109	-0.00009592
1.096	-0.00004959
1.083	-0.00000552
1.07	0.00003673
1.057	0.00007297
1.044	0.00010840
1.031	0.00014257
1.018	0.00017501
1.005	0.00020656
0.992	0.00023757
0.979	0.00026837
0.966	0.00029957
0.953	0.00033124
0.94	0.00036282
0.927	0.00039476
0.914	0.00042742
0.901	0.00046032
0.888	0.00049323
0.875	0.00052637
0.862	0.00055935
0.849	0.00059263
0.836	0.00062556
0.823	0.00065836
0.81	0.00069070
0.797	0.00072242
0.784	0.00075366
0.771	0.00078445
0.758	0.00081438
0.745	0.00084325
0.732	0.00087225
0.719	0.00089999
0.706	0.00092321
0.693	0.00095180
0.68	0.00097758
0.667	0.00100296
0.654	0.00102714
0.641	0.00104945
0.628	0.00105790
0.615	0.00108085
0.602	0.00110364
0.589	0.00112525
0.576	0.00114606
0.563	0.00116594
0.55	0.00118531
0.537	0.00120426
0.524	0.00122222
0.511	0.00123980
0.498	0.00125694
0.485	0.00127280
0.472	0.00128824
0.459	0.00130379
0.446	0.00131883
0.433	0.00133217
0.42	0.00134646
0.407	0.00135957
0.394	0.00137243
0.381	0.00138565
0.368	0.00139745
0.355	0.00140882
0.342	0.00141981
0.329	0.00143032
0.316	0.00144084
0.303	0.00145033
0.29	0.00145985
0.277	0.00146889
0.264	0.00147663
0.251	0.00148536
0.238	0.00149239
0.225	0.00149995
0.212	0.00150639
0.199	0.00151338
0.186	0.00151935
0.173	0.00152500
0.16	0.00153025
0.147	0.00153522
0.134	0.00154026
0.121	0.00154449
0.108	0.00154876
0.09500000	0.00155294
0.08200000	0.00155633
0.06900000	0.00156042
0.05600000	0.00156376
0.04300000	0.00156680
0.03000000	0.00156935
0.01700000	0.00157251
0.00400000	0.00157495
-0.00900000	0.00158026
-0.02200000	0.00158071
-0.03500000	0.00158233
-0.04800000	0.00158512
-0.06100000	0.00158674
-0.07400000	0.00158910
-0.08700000	0.00159147
-0.1	0.00159311