File: Data/IV_data/2024-05-02/A1-3_ITO+SnO2+PVSK+C6Br+Spiro+Carbon (Air Quench)  2024-04-18 20-16-15 2024-05-06 19-13-55.txt
Device Id	Operator	Recipe
A1-2_ITO+SnO2+PVSK+C6Br+Spiro+Carbon (Air Quench)  2024-04-18 20-16-15	Unknown	Jacob PVSKT _ 0.077cm^2 (nature recipe).IV

Sample Area	Irradiance	Pre sweep delay	Bias Direction	Max Reverse Bias	Max Forward Bias	Num Sweep Points	Dwell Time	Current Limit	PVIV 10A I-AMP	Average	Dark Current	Rshunt V-Lo	Rshunt V-Hi
0.077170	1.0000	0.5000	0	-0.1000	1.2000	101	10	130	0	1	0	-0.6000	-0.1000

Voc V	Isc A	Jsc mA/cm2	Imax A	Vmax V	Pmax mW	Fill Factor	Efficiency	R at Voc	R at Isc	Power W	RShunt ohms	Cell Temp start	Cell Temp end	Exposure	Time	Date
1.0613	0.00151764	19.6662	0.00100503	0.668999	0.672366	41.7445	8.7128	263.189	3903.867	0.00112627	NaN	NaN	NaN	8.297	19:13:55	05/06/2024

Vmeas	Imeas
1.2	-0.00066880
1.187	-0.00059936
1.174	-0.00052724
1.161	-0.00045497
1.148	-0.00038407
1.135	-0.00031547
1.122	-0.00024953
1.109	-0.00018704
1.096	-0.00012797
1.083	-0.00007130
1.07	-0.00001851
1.057	0.00003179
1.044	0.00007955
1.031	0.00012216
1.018	0.00016872
1.005	0.00021255
0.992	0.00025444
0.979	0.00029506
0.966	0.00033453
0.953	0.00037266
0.94	0.00040994
0.927	0.00044636
0.914	0.00048171
0.901	0.00051658
0.888	0.00055033
0.875	0.00058352
0.862	0.00061582
0.849	0.00064719
0.836	0.00067799
0.823	0.00070826
0.81	0.00073763
0.797	0.00076581
0.784	0.00079363
0.771	0.00082059
0.758	0.00084676
0.745	0.00087261
0.732	0.00089721
0.719	0.00092120
0.706	0.00094481
0.693	0.00096724
0.68	0.00098917
0.667	0.00101106
0.654	0.00103154
0.641	0.00105006
0.628	0.00105712
0.615	0.00107658
0.602	0.00109717
0.589	0.00111671
0.576	0.00113518
0.563	0.00115302
0.55	0.00117048
0.537	0.00118755
0.524	0.00120307
0.511	0.00121923
0.498	0.00123399
0.485	0.00124933
0.472	0.00126381
0.459	0.00127808
0.446	0.00129194
0.433	0.00130480
0.42	0.00131729
0.407	0.00132989
0.394	0.00134149
0.381	0.00135327
0.368	0.00136454
0.355	0.00137502
0.342	0.00138578
0.329	0.00139417
0.316	0.00140406
0.303	0.00141311
0.29	0.00142149
0.277	0.00142963
0.264	0.00143756
0.251	0.00144423
0.238	0.00145073
0.225	0.00145731
0.212	0.00146320
0.199	0.00146866
0.186	0.00147306
0.173	0.00147821
0.16	0.00148271
0.147	0.00148713
0.134	0.00149090
0.121	0.00149407
0.108	0.00149722
0.09500000	0.00150087
0.08200000	0.00150464
0.06900000	0.00150740
0.05600000	0.00150984
0.04300000	0.00151196
0.03000000	0.00151394
0.01700000	0.00151569
0.00400000	0.00151835
-0.00900000	0.00152079
-0.02200000	0.00152208
-0.03500000	0.00152424
-0.04800000	0.00152588
-0.06100000	0.00152737
-0.07400000	0.00152890
-0.08700000	0.00153063
-0.1	0.00153190