File: Data/IV_data/2024-05-02/A1-4_ITO+SnO2+PVSK+C6Br+Spiro+Carbon (Air Quench)  2024-04-18 20-16-15 2024-05-06 19-24-12.txt
Device Id	Operator	Recipe
A1-4_ITO+SnO2+PVSK+C6Br+Spiro+Carbon (Air Quench)  2024-04-18 20-16-15	Unknown	Jacob PVSKT _ 0.077cm^2 (nature recipe).IV

Sample Area	Irradiance	Pre sweep delay	Bias Direction	Max Reverse Bias	Max Forward Bias	Num Sweep Points	Dwell Time	Current Limit	PVIV 10A I-AMP	Average	Dark Current	Rshunt V-Lo	Rshunt V-Hi
0.077170	1.0000	0.5000	0	-0.1000	1.2000	101	10	130	0	1	0	-0.6000	-0.1000

Voc V	Isc A	Jsc mA/cm2	Imax A	Vmax V	Pmax mW	Fill Factor	Efficiency	R at Voc	R at Isc	Power W	RShunt ohms	Cell Temp start	Cell Temp end	Exposure	Time	Date
1.07983	0.00138994	18.0114	0.00098361	0.650391	0.639729	42.6229	8.2899	301.986	4670.260	0.00105633	NaN	NaN	NaN	8.297	19:24:12	05/06/2024

Vmeas	Imeas
1.2	-0.00056447
1.187	-0.00048561
1.174	-0.00040678
1.161	-0.00033100
1.148	-0.00025960
1.135	-0.00019356
1.122	-0.00013312
1.109	-0.00007734
1.096	-0.00002827
1.083	0.00001651
1.07	0.00005698
1.057	0.00009424
1.044	0.00012810
1.031	0.00016263
1.018	0.00019593
1.005	0.00022793
0.992	0.00025948
0.979	0.00029074
0.966	0.00032208
0.953	0.00035350
0.94	0.00038520
0.927	0.00041655
0.914	0.00044795
0.901	0.00047943
0.888	0.00051047
0.875	0.00054145
0.862	0.00057185
0.849	0.00060210
0.836	0.00063131
0.823	0.00066030
0.81	0.00068866
0.797	0.00071576
0.784	0.00074312
0.771	0.00076979
0.758	0.00079568
0.745	0.00081986
0.732	0.00084505
0.719	0.00086853
0.706	0.00089144
0.693	0.00091404
0.68	0.00093598
0.667	0.00095686
0.654	0.00097763
0.641	0.00099792
0.628	0.00101704
0.615	0.00103633
0.602	0.00105019
0.589	0.00106392
0.576	0.00107936
0.563	0.00109625
0.55	0.00111300
0.537	0.00112928
0.524	0.00114406
0.511	0.00115952
0.498	0.00117366
0.485	0.00118717
0.472	0.00119981
0.459	0.00121258
0.446	0.00122465
0.433	0.00123536
0.42	0.00124562
0.407	0.00125528
0.394	0.00126458
0.381	0.00127289
0.368	0.00128132
0.355	0.00128961
0.342	0.00129668
0.329	0.00130255
0.316	0.00130952
0.303	0.00131520
0.29	0.00132073
0.277	0.00132616
0.264	0.00133131
0.251	0.00133544
0.238	0.00134006
0.225	0.00134364
0.212	0.00134746
0.199	0.00135093
0.186	0.00135478
0.173	0.00135776
0.16	0.00136098
0.147	0.00136385
0.134	0.00136692
0.121	0.00136965
0.108	0.00137164
0.09500000	0.00137447
0.08200000	0.00137676
0.06900000	0.00137927
0.05600000	0.00138093
0.04300000	0.00138345
0.03000000	0.00138559
0.01700000	0.00138713
0.00400000	0.00138930
-0.00900000	0.00139246
-0.02200000	0.00139328
-0.03500000	0.00139472
-0.04800000	0.00139749
-0.06100000	0.00139816
-0.07400000	0.00140007
-0.08700000	0.00140223
-0.1	0.00140368