File: Data/IV_data/2024-05-02/A1-5_ITO+SnO2+PVSK+C6Br+Spiro+Carbon (Air Quench)  2024-04-18 20-16-15 2024-05-06 19-24-55.txt
Device Id	Operator	Recipe
A1-5_ITO+SnO2+PVSK+C6Br+Spiro+Carbon (Air Quench)  2024-04-18 20-16-15	Unknown	Jacob PVSKT _ 0.077cm^2 (nature recipe).IV

Sample Area	Irradiance	Pre sweep delay	Bias Direction	Max Reverse Bias	Max Forward Bias	Num Sweep Points	Dwell Time	Current Limit	PVIV 10A I-AMP	Average	Dark Current	Rshunt V-Lo	Rshunt V-Hi
0.077170	1.0000	0.5000	0	-0.1000	1.2000	101	10	130	0	1	0	-0.6000	-0.1000

Voc V	Isc A	Jsc mA/cm2	Imax A	Vmax V	Pmax mW	Fill Factor	Efficiency	R at Voc	R at Isc	Power W	RShunt ohms	Cell Temp start	Cell Temp end	Exposure	Time	Date
0.628011	0.00134087	17.3755	0.00072776	0.339753	0.24726	29.3630	3.2041	391.629	731.976	0.00046756	NaN	NaN	NaN	8.562	19:24:55	05/06/2024

Vmeas	Imeas
1.2	-0.00166941
1.187	-0.00156038
1.174	-0.00148944
1.161	-0.00144410
1.148	-0.00139896
1.135	-0.00133746
1.122	-0.00130085
1.109	-0.00126845
1.096	-0.00117788
1.083	-0.00108660
1.07	-0.00119848
1.057	-0.00121152
1.044	-0.00117614
1.031	-0.00115028
1.018	-0.00111487
1.005	-0.00109012
0.992	-0.00104301
0.979	-0.00100337
0.966	-0.00097071
0.953	-0.00093223
0.94	-0.00089905
0.927	-0.00086022
0.914	-0.00082375
0.901	-0.00078180
0.888	-0.00074448
0.875	-0.00071040
0.862	-0.00066813
0.849	-0.00062841
0.836	-0.00059108
0.823	-0.00054866
0.81	-0.00051386
0.797	-0.00046855
0.784	-0.00043192
0.771	-0.00039144
0.758	-0.00035743
0.745	-0.00031198
0.732	-0.00027061
0.719	-0.00023190
0.706	-0.00019288
0.693	-0.00015087
0.68	-0.00011331
0.667	-0.00009073
0.654	-0.00004764
0.641	-0.00006455
0.628	-0.00002103
0.615	0.00002520
0.602	0.00007151
0.589	0.00010458
0.576	0.00012931
0.563	0.00017292
0.55	0.00021114
0.537	0.00024957
0.524	0.00028169
0.511	0.00031444
0.498	0.00034745
0.485	0.00038362
0.472	0.00041688
0.459	0.00045089
0.446	0.00048285
0.433	0.00051507
0.42	0.00054543
0.407	0.00057606
0.394	0.00060774
0.381	0.00063898
0.368	0.00066619
0.355	0.00069417
0.342	0.00072322
0.329	0.00075146
0.316	0.00077792
0.303	0.00080611
0.29	0.00083435
0.277	0.00086026
0.264	0.00088745
0.251	0.00091253
0.238	0.00093773
0.225	0.00096347
0.212	0.00098778
0.199	0.00101462
0.186	0.00104569
0.173	0.00105820
0.16	0.00108086
0.147	0.00110486
0.134	0.00112858
0.121	0.00115076
0.108	0.00117266
0.09500000	0.00119515
0.08200000	0.00121665
0.06900000	0.00123855
0.05600000	0.00125938
0.04300000	0.00127946
0.03000000	0.00129907
0.01700000	0.00131802
0.00400000	0.00133795
-0.00900000	0.00135495
-0.02200000	0.00137217
-0.03500000	0.00138967
-0.04800000	0.00140553
-0.06100000	0.00142164
-0.07400000	0.00143629
-0.08700000	0.00145103
-0.1	0.00146469