File: Data/IV_data/2024-05-02/A3-1_ITO+SnO2+PVSK+C6Br+Spiro+Carbon (Air Quench)  2024-04-18 20-16-15 2024-05-06 19-29-45.txt
Device Id	Operator	Recipe
A2-1_ITO+SnO2+PVSK+C6Br+Spiro+Carbon (Air Quench)  2024-04-18 20-16-15	Unknown	Jacob PVSKT _ 0.077cm^2 (nature recipe).IV

Sample Area	Irradiance	Pre sweep delay	Bias Direction	Max Reverse Bias	Max Forward Bias	Num Sweep Points	Dwell Time	Current Limit	PVIV 10A I-AMP	Average	Dark Current	Rshunt V-Lo	Rshunt V-Hi
0.077170	1.0000	0.5000	0	-0.1000	1.2000	101	10	130	0	1	0	-0.6000	-0.1000

Voc V	Isc A	Jsc mA/cm2	Imax A	Vmax V	Pmax mW	Fill Factor	Efficiency	R at Voc	R at Isc	Power W	RShunt ohms	Cell Temp start	Cell Temp end	Exposure	Time	Date
1.00558	0.00134970	17.4899	0.00093641	0.425593	0.398529	29.3633	5.1643	7262.85	1996.036	0.00051443	NaN	NaN	NaN	9.109	19:29:45	05/06/2024

Vmeas	Imeas
1.2	-0.00010500
1.187	-0.00006432
1.174	-0.00005464
1.161	-0.00004868
1.148	-0.00004506
1.135	-0.00002587
1.122	-0.00001868
1.109	-0.00001456
1.096	-0.00001076
1.083	-0.00000598
1.07	-0.00000700
1.057	-0.00000750
1.044	-0.00000212
1.031	-0.00000012
1.018	0.00000104
1.005	0.00000188
0.992	0.00000209
0.979	0.00000286
0.966	0.00000463
0.953	0.00000473
0.94	0.00000621
0.927	0.00000668
0.914	0.00000526
0.901	0.00000472
0.888	0.00002075
0.875	0.00002318
0.862	0.00002775
0.849	0.00002471
0.836	0.00010502
0.823	0.00011998
0.81	0.00004282
0.797	0.00004892
0.784	0.00001884
0.771	0.00000042
0.758	0.00000052
0.745	0.00000046
0.732	0.00000017
0.719	0.00000015
0.706	0.00000062
0.693	0.00000020
0.68	0.00000047
0.667	0.00000069
0.654	0.00000070
0.641	0.00000132
0.628	0.00000114
0.615	0.00000149
0.602	0.00000369
0.589	0.00000457
0.576	0.00000590
0.563	0.00000943
0.55	0.00001881
0.537	0.00003516
0.524	0.00002992
0.511	0.00002417
0.498	0.00006608
0.485	0.00009565
0.472	0.00021642
0.459	0.00066631
0.446	0.00078822
0.433	0.00090561
0.42	0.00094096
0.407	0.00090857
0.394	0.00088893
0.381	0.00086409
0.368	0.00082351
0.355	0.00089751
0.342	0.00095647
0.329	0.00091325
0.316	0.00099120
0.303	0.00107487
0.29	0.00092011
0.277	0.00071729
0.264	0.00118821
0.251	0.00113293
0.238	0.00104891
0.225	0.00120156
0.212	0.00111732
0.199	0.00111034
0.186	0.00111290
0.173	0.00114236
0.16	0.00110508
0.147	0.00116384
0.134	0.00126731
0.121	0.00121776
0.108	0.00119089
0.09500000	0.00126673
0.08200000	0.00128267
0.06900000	0.00133587
0.05600000	0.00138241
0.04300000	0.00132338
0.03000000	0.00132531
0.01700000	0.00134947
0.00400000	0.00131407
-0.00900000	0.00138007
-0.02200000	0.00134607
-0.03500000	0.00132762
-0.04800000	0.00139613
-0.06100000	0.00138377
-0.07400000	0.00137338
-0.08700000	0.00140438
-0.1	0.00140376