File: Data/IV_data/2024-05-02/A3-2_ITO+SnO2+PVSK+C6Br+Spiro+Carbon (Air Quench)  2024-04-18 20-16-15 2024-05-06 19-30-35.txt
Device Id	Operator	Recipe
A2-2_ITO+SnO2+PVSK+C6Br+Spiro+Carbon (Air Quench)  2024-04-18 20-16-15	Unknown	Jacob PVSKT _ 0.077cm^2 (nature recipe).IV

Sample Area	Irradiance	Pre sweep delay	Bias Direction	Max Reverse Bias	Max Forward Bias	Num Sweep Points	Dwell Time	Current Limit	PVIV 10A I-AMP	Average	Dark Current	Rshunt V-Lo	Rshunt V-Hi
0.077170	1.0000	0.5000	0	-0.1000	1.2000	101	10	130	0	1	0	-0.6000	-0.1000

Voc V	Isc A	Jsc mA/cm2	Imax A	Vmax V	Pmax mW	Fill Factor	Efficiency	R at Voc	R at Isc	Power W	RShunt ohms	Cell Temp start	Cell Temp end	Exposure	Time	Date
1.02313	0.00111484	14.4466	0.00073494	0.622767	0.457694	40.1263	5.9310	290.119	5011.070	0.00079136	NaN	NaN	NaN	8.281	19:30:35	05/06/2024

Vmeas	Imeas
1.2	-0.00089265
1.187	-0.00082622
1.174	-0.00075014
1.161	-0.00067178
1.148	-0.00059395
1.135	-0.00051787
1.122	-0.00044388
1.109	-0.00037271
1.096	-0.00030447
1.083	-0.00023952
1.07	-0.00017787
1.057	-0.00011969
1.044	-0.00006380
1.031	-0.00001372
1.018	0.00003367
1.005	0.00007785
0.992	0.00011555
0.979	0.00015496
0.966	0.00019091
0.953	0.00022389
0.94	0.00025442
0.927	0.00028232
0.914	0.00030968
0.901	0.00033499
0.888	0.00035909
0.875	0.00038202
0.862	0.00040416
0.849	0.00042559
0.836	0.00044644
0.823	0.00046667
0.81	0.00048598
0.797	0.00050529
0.784	0.00052426
0.771	0.00054279
0.758	0.00056091
0.745	0.00057916
0.732	0.00059680
0.719	0.00061440
0.706	0.00063139
0.693	0.00064820
0.68	0.00066508
0.667	0.00068138
0.654	0.00069754
0.641	0.00071341
0.628	0.00072886
0.615	0.00074402
0.602	0.00075894
0.589	0.00077383
0.576	0.00078858
0.563	0.00080265
0.55	0.00081699
0.537	0.00083084
0.524	0.00084439
0.511	0.00085673
0.498	0.00087063
0.485	0.00088391
0.472	0.00089633
0.459	0.00090881
0.446	0.00092083
0.433	0.00093247
0.42	0.00094375
0.407	0.00095438
0.394	0.00096533
0.381	0.00097546
0.368	0.00098553
0.355	0.00099495
0.342	0.00100407
0.329	0.00101282
0.316	0.00102084
0.303	0.00102868
0.29	0.00103589
0.277	0.00104284
0.264	0.00104928
0.251	0.00105657
0.238	0.00105896
0.225	0.00106379
0.212	0.00106875
0.199	0.00107347
0.186	0.00107772
0.173	0.00108138
0.16	0.00108559
0.147	0.00108886
0.134	0.00109247
0.121	0.00109554
0.108	0.00109829
0.09500000	0.00110117
0.08200000	0.00110350
0.06900000	0.00110571
0.05600000	0.00110787
0.04300000	0.00111045
0.03000000	0.00111225
0.01700000	0.00111407
0.00400000	0.00111569
-0.00900000	0.00111763
-0.02200000	0.00111902
-0.03500000	0.00112034
-0.04800000	0.00112224
-0.06100000	0.00112356
-0.07400000	0.00112495
-0.08700000	0.00112639
-0.1	0.00112746