File: Data/IV_data/2024-05-02/A3-3_ITO+SnO2+PVSK+C6Br+Spiro+Carbon (Air Quench)  2024-04-18 20-16-15 2024-05-06 19-31-43.txt
Device Id	Operator	Recipe
A2-3_ITO+SnO2+PVSK+C6Br+Spiro+Carbon (Air Quench)  2024-04-18 20-16-15	Unknown	Jacob PVSKT _ 0.077cm^2 (nature recipe).IV

Sample Area	Irradiance	Pre sweep delay	Bias Direction	Max Reverse Bias	Max Forward Bias	Num Sweep Points	Dwell Time	Current Limit	PVIV 10A I-AMP	Average	Dark Current	Rshunt V-Lo	Rshunt V-Hi
0.077170	1.0000	0.5000	0	-0.1000	1.2000	101	10	130	0	1	0	-0.6000	-0.1000

Voc V	Isc A	Jsc mA/cm2	Imax A	Vmax V	Pmax mW	Fill Factor	Efficiency	R at Voc	R at Isc	Power W	RShunt ohms	Cell Temp start	Cell Temp end	Exposure	Time	Date
1.02545	0.00163897	21.2384	0.00107245	0.603823	0.647569	38.5300	8.3915	203.543	4187.854	0.00114929	NaN	NaN	NaN	8.562	19:31:43	05/06/2024

Vmeas	Imeas
1.2	-0.00125082
1.187	-0.00115705
1.174	-0.00104857
1.161	-0.00093571
1.148	-0.00082653
1.135	-0.00071665
1.122	-0.00060937
1.109	-0.00050666
1.096	-0.00040845
1.083	-0.00031526
1.07	-0.00022753
1.057	-0.00014537
1.044	-0.00006705
1.031	0.00000233
1.018	0.00006590
1.005	0.00012320
0.992	0.00017918
0.979	0.00022972
0.966	0.00027593
0.953	0.00031799
0.94	0.00035665
0.927	0.00039331
0.914	0.00042753
0.901	0.00045983
0.888	0.00049100
0.875	0.00052092
0.862	0.00055003
0.849	0.00057870
0.836	0.00060673
0.823	0.00063512
0.81	0.00066245
0.797	0.00068993
0.784	0.00071684
0.771	0.00074379
0.758	0.00077058
0.745	0.00079612
0.732	0.00082375
0.719	0.00085026
0.706	0.00087656
0.693	0.00090266
0.68	0.00092876
0.667	0.00095499
0.654	0.00098071
0.641	0.00100619
0.628	0.00103208
0.615	0.00105019
0.602	0.00108198
0.589	0.00109493
0.576	0.00111851
0.563	0.00114276
0.55	0.00116647
0.537	0.00119064
0.524	0.00121392
0.511	0.00123688
0.498	0.00125989
0.485	0.00128229
0.472	0.00130441
0.459	0.00132569
0.446	0.00134664
0.433	0.00136688
0.42	0.00138703
0.407	0.00140673
0.394	0.00142511
0.381	0.00144288
0.368	0.00145973
0.355	0.00147580
0.342	0.00149088
0.329	0.00150492
0.316	0.00151853
0.303	0.00153070
0.29	0.00154211
0.277	0.00155236
0.264	0.00156208
0.251	0.00157101
0.238	0.00157862
0.225	0.00158553
0.212	0.00159224
0.199	0.00159769
0.186	0.00160260
0.173	0.00160687
0.16	0.00161137
0.147	0.00161541
0.134	0.00161830
0.121	0.00162139
0.108	0.00162378
0.09500000	0.00162660
0.08200000	0.00162906
0.06900000	0.00163120
0.05600000	0.00163264
0.04300000	0.00163458
0.03000000	0.00163600
0.01700000	0.00163783
0.00400000	0.00163964
-0.00900000	0.00164022
-0.02200000	0.00164136
-0.03500000	0.00164289
-0.04800000	0.00164423
-0.06100000	0.00164551
-0.07400000	0.00164601
-0.08700000	0.00164735
-0.1	0.00164832