File: Data/IV_data/2024-05-02/A3-4_ITO+SnO2+PVSK+C6Br+Spiro+Carbon (Air Quench)  2024-04-18 20-16-15 2024-05-06 19-32-20.txt
Device Id	Operator	Recipe
A2-4_ITO+SnO2+PVSK+C6Br+Spiro+Carbon (Air Quench)  2024-04-18 20-16-15	Unknown	Jacob PVSKT _ 0.077cm^2 (nature recipe).IV

Sample Area	Irradiance	Pre sweep delay	Bias Direction	Max Reverse Bias	Max Forward Bias	Num Sweep Points	Dwell Time	Current Limit	PVIV 10A I-AMP	Average	Dark Current	Rshunt V-Lo	Rshunt V-Hi
0.077170	1.0000	0.5000	0	-0.1000	1.2000	101	10	130	0	1	0	-0.6000	-0.1000

Voc V	Isc A	Jsc mA/cm2	Imax A	Vmax V	Pmax mW	Fill Factor	Efficiency	R at Voc	R at Isc	Power W	RShunt ohms	Cell Temp start	Cell Temp end	Exposure	Time	Date
1.03968	0.00153358	19.8727	0.00106842	0.640575	0.6844	42.9243	8.8687	242.362	5465.571	0.00114345	NaN	NaN	NaN	8.484	19:32:20	05/06/2024

Vmeas	Imeas
1.2	-0.00079850
1.187	-0.00073280
1.174	-0.00066351
1.161	-0.00059224
1.148	-0.00052058
1.135	-0.00044974
1.122	-0.00037996
1.109	-0.00031216
1.096	-0.00024641
1.083	-0.00018281
1.07	-0.00012146
1.057	-0.00006188
1.044	-0.00000613
1.031	0.00004721
1.018	0.00010037
1.005	0.00014684
0.992	0.00019743
0.979	0.00024510
0.966	0.00029066
0.953	0.00033411
0.94	0.00037570
0.927	0.00041574
0.914	0.00045421
0.901	0.00049151
0.888	0.00052732
0.875	0.00056221
0.862	0.00059603
0.849	0.00062905
0.836	0.00066134
0.823	0.00069312
0.81	0.00072395
0.797	0.00075417
0.784	0.00078407
0.771	0.00081311
0.758	0.00084156
0.745	0.00086996
0.732	0.00089758
0.719	0.00092504
0.706	0.00095122
0.693	0.00097701
0.68	0.00100262
0.667	0.00102731
0.654	0.00105001
0.641	0.00106430
0.628	0.00108535
0.615	0.00110932
0.602	0.00113242
0.589	0.00115492
0.576	0.00117688
0.563	0.00119829
0.55	0.00121834
0.537	0.00123718
0.524	0.00125660
0.511	0.00127525
0.498	0.00129283
0.485	0.00130960
0.472	0.00132562
0.459	0.00134061
0.446	0.00135498
0.433	0.00136789
0.42	0.00138148
0.407	0.00139321
0.394	0.00140445
0.381	0.00141507
0.368	0.00142490
0.355	0.00143398
0.342	0.00144247
0.329	0.00145002
0.316	0.00145732
0.303	0.00146369
0.29	0.00146934
0.277	0.00147565
0.264	0.00148059
0.251	0.00148490
0.238	0.00148955
0.225	0.00149408
0.212	0.00149697
0.199	0.00150109
0.186	0.00150407
0.173	0.00150753
0.16	0.00151046
0.147	0.00151246
0.134	0.00151526
0.121	0.00151731
0.108	0.00151940
0.09500000	0.00152144
0.08200000	0.00152330
0.06900000	0.00152611
0.05600000	0.00152709
0.04300000	0.00152952
0.03000000	0.00153087
0.01700000	0.00153194
0.00400000	0.00153369
-0.00900000	0.00153470
-0.02200000	0.00153616
-0.03500000	0.00153781
-0.04800000	0.00153896
-0.06100000	0.00153979
-0.07400000	0.00154123
-0.08700000	0.00154227
-0.1	0.00154296