File: Data/IV_data/2024-05-02/A4-1_ITO+SnO2+PVSK+C6Br+Spiro+Carbon (Air Quench)  2024-04-18 20-16-15 2024-05-06 19-38-02.txt
Device Id	Operator	Recipe
A4-1_ITO+SnO2+PVSK+C6Br+Spiro+Carbon (Air Quench)  2024-04-18 20-16-15	Unknown	Jacob PVSKT _ 0.077cm^2 (nature recipe).IV

Sample Area	Irradiance	Pre sweep delay	Bias Direction	Max Reverse Bias	Max Forward Bias	Num Sweep Points	Dwell Time	Current Limit	PVIV 10A I-AMP	Average	Dark Current	Rshunt V-Lo	Rshunt V-Hi
0.077170	1.0000	0.5000	0	-0.1000	1.2000	101	10	130	0	1	0	-0.6000	-0.1000

Voc V	Isc A	Jsc mA/cm2	Imax A	Vmax V	Pmax mW	Fill Factor	Efficiency	R at Voc	R at Isc	Power W	RShunt ohms	Cell Temp start	Cell Temp end	Exposure	Time	Date
0.591362	0.00117020	15.164	0.00067901	0.330141	0.22417	32.3938	2.9049	387.239	952.992	0.00041216	NaN	NaN	NaN	9.234	19:38:02	05/06/2024

Vmeas	Imeas
1.2	-0.00150580
1.187	-0.00143475
1.174	-0.00137727
1.161	-0.00131285
1.148	-0.00125297
1.135	-0.00119733
1.122	-0.00114291
1.109	-0.00109488
1.096	-0.00105114
1.083	-0.00101121
1.07	-0.00097141
1.057	-0.00093875
1.044	-0.00090845
1.031	-0.00087773
1.018	-0.00084904
1.005	-0.00082380
0.992	-0.00079682
0.979	-0.00077090
0.966	-0.00076653
0.953	-0.00078395
0.94	-0.00070519
0.927	-0.00076210
0.914	-0.00076303
0.901	-0.00075165
0.888	-0.00072754
0.875	-0.00070049
0.862	-0.00067746
0.849	-0.00064539
0.836	-0.00060914
0.823	-0.00057934
0.81	-0.00054322
0.797	-0.00050392
0.784	-0.00046593
0.771	-0.00042743
0.758	-0.00038417
0.745	-0.00034255
0.732	-0.00030775
0.719	-0.00014755
0.706	-0.00010235
0.693	-0.00031149
0.68	-0.00026116
0.667	-0.00021479
0.654	-0.00017068
0.641	-0.00012294
0.628	-0.00008271
0.615	-0.00004520
0.602	-0.00005218
0.589	-0.00000438
0.576	0.00003204
0.563	0.00008041
0.55	0.00010089
0.537	0.00014895
0.524	0.00019239
0.511	0.00023094
0.498	0.00026741
0.485	0.00030505
0.472	0.00033775
0.459	0.00037326
0.446	0.00040878
0.433	0.00045004
0.42	0.00047477
0.407	0.00050350
0.394	0.00053382
0.381	0.00056836
0.368	0.00060386
0.355	0.00062367
0.342	0.00065151
0.329	0.00068092
0.316	0.00071163
0.303	0.00073665
0.29	0.00076424
0.277	0.00079477
0.264	0.00082648
0.251	0.00084461
0.238	0.00087361
0.225	0.00089347
0.212	0.00091008
0.199	0.00093261
0.186	0.00096857
0.173	0.00099898
0.16	0.00101447
0.147	0.00102984
0.134	0.00104413
0.121	0.00103441
0.108	0.00105016
0.09500000	0.00106481
0.08200000	0.00107997
0.06900000	0.00109492
0.05600000	0.00111022
0.04300000	0.00112538
0.03000000	0.00113887
0.01700000	0.00115229
0.00400000	0.00116661
-0.00900000	0.00117983
-0.02200000	0.00119393
-0.03500000	0.00120818
-0.04800000	0.00122043
-0.06100000	0.00123253
-0.07400000	0.00124432
-0.08700000	0.00125605
-0.1	0.00126679