File: Data/IV_data/2024-05-02/A4-2_ITO+SnO2+PVSK+C6Br+Spiro+Carbon (Air Quench)  2024-04-18 20-16-15 2024-05-06 19-38-26.txt
Device Id	Operator	Recipe
A4-1_ITO+SnO2+PVSK+C6Br+Spiro+Carbon (Air Quench)  2024-04-18 20-16-15	Unknown	Jacob PVSKT _ 0.077cm^2 (nature recipe).IV

Sample Area	Irradiance	Pre sweep delay	Bias Direction	Max Reverse Bias	Max Forward Bias	Num Sweep Points	Dwell Time	Current Limit	PVIV 10A I-AMP	Average	Dark Current	Rshunt V-Lo	Rshunt V-Hi
0.077170	1.0000	0.5000	0	-0.1000	1.2000	101	10	130	0	1	0	-0.6000	-0.1000

Voc V	Isc A	Jsc mA/cm2	Imax A	Vmax V	Pmax mW	Fill Factor	Efficiency	R at Voc	R at Isc	Power W	RShunt ohms	Cell Temp start	Cell Temp end	Exposure	Time	Date
0.974584	0.00144446	18.7179	0.00091129	0.550936	0.50206	35.6641	6.5059	320.024	2767.915	0.00090232	NaN	NaN	NaN	8.500	19:38:26	05/06/2024

Vmeas	Imeas
1.2	-0.00081305
1.187	-0.00077807
1.174	-0.00073310
1.161	-0.00068372
1.148	-0.00063220
1.135	-0.00057961
1.122	-0.00052705
1.109	-0.00047461
1.096	-0.00042313
1.083	-0.00037220
1.07	-0.00032194
1.057	-0.00027278
1.044	-0.00022454
1.031	-0.00017772
1.018	-0.00013209
1.005	-0.00008595
0.992	-0.00004417
0.979	-0.00000225
0.966	0.00003807
0.953	0.00007696
0.94	0.00011315
0.927	0.00015047
0.914	0.00018618
0.901	0.00022054
0.888	0.00025355
0.875	0.00028561
0.862	0.00031668
0.849	0.00034649
0.836	0.00037561
0.823	0.00040433
0.81	0.00043248
0.797	0.00045985
0.784	0.00048634
0.771	0.00051249
0.758	0.00053855
0.745	0.00056402
0.732	0.00058971
0.719	0.00061428
0.706	0.00063874
0.693	0.00066282
0.68	0.00068708
0.667	0.00071088
0.654	0.00073370
0.641	0.00075727
0.628	0.00078029
0.615	0.00080287
0.602	0.00082531
0.589	0.00084780
0.576	0.00087001
0.563	0.00089235
0.55	0.00091278
0.537	0.00093407
0.524	0.00095407
0.511	0.00097576
0.498	0.00099561
0.485	0.00101613
0.472	0.00103647
0.459	0.00105019
0.446	0.00107637
0.433	0.00108802
0.42	0.00110595
0.407	0.00112396
0.394	0.00114171
0.381	0.00115912
0.368	0.00117621
0.355	0.00119331
0.342	0.00120997
0.329	0.00122527
0.316	0.00123948
0.303	0.00125417
0.29	0.00126820
0.277	0.00128194
0.264	0.00129471
0.251	0.00130662
0.238	0.00131882
0.225	0.00133001
0.212	0.00134065
0.199	0.00135132
0.186	0.00136099
0.173	0.00137074
0.16	0.00137828
0.147	0.00138660
0.134	0.00139438
0.121	0.00140116
0.108	0.00140764
0.09500000	0.00141382
0.08200000	0.00141979
0.06900000	0.00142522
0.05600000	0.00143022
0.04300000	0.00143464
0.03000000	0.00143920
0.01700000	0.00144364
0.00400000	0.00144699
-0.00900000	0.00145139
-0.02200000	0.00145440
-0.03500000	0.00145749
-0.04800000	0.00146075
-0.06100000	0.00146372
-0.07400000	0.00146695
-0.08700000	0.00146902
-0.1	0.00147192