File: Data/IV_data/2024-05-02/A4-3_ITO+SnO2+PVSK+C6Br+Spiro+Carbon (Air Quench)  2024-04-18 20-16-15 2024-05-06 19-39-13.txt
Device Id	Operator	Recipe
A4-2_ITO+SnO2+PVSK+C6Br+Spiro+Carbon (Air Quench)  2024-04-18 20-16-15	Unknown	Jacob PVSKT _ 0.077cm^2 (nature recipe).IV

Sample Area	Irradiance	Pre sweep delay	Bias Direction	Max Reverse Bias	Max Forward Bias	Num Sweep Points	Dwell Time	Current Limit	PVIV 10A I-AMP	Average	Dark Current	Rshunt V-Lo	Rshunt V-Hi
0.077170	1.0000	0.5000	0	-0.1000	1.2000	101	10	130	0	1	0	-0.6000	-0.1000

Voc V	Isc A	Jsc mA/cm2	Imax A	Vmax V	Pmax mW	Fill Factor	Efficiency	R at Voc	R at Isc	Power W	RShunt ohms	Cell Temp start	Cell Temp end	Exposure	Time	Date
0.955726	0.00139081	18.0227	0.00085703	0.529155	0.4535	34.1174	5.8766	367.82	2683.799	0.00082616	NaN	NaN	NaN	8.297	19:39:13	05/06/2024

Vmeas	Imeas
1.2	-0.00082022
1.187	-0.00078711
1.174	-0.00074598
1.161	-0.00069997
1.148	-0.00065120
1.135	-0.00060096
1.122	-0.00055013
1.109	-0.00049930
1.096	-0.00044861
1.083	-0.00039895
1.07	-0.00035055
1.057	-0.00030326
1.044	-0.00025729
1.031	-0.00021285
1.018	-0.00017011
1.005	-0.00012906
0.992	-0.00008743
0.979	-0.00005142
0.966	-0.00001547
0.953	0.00001934
0.94	0.00005289
0.927	0.00008519
0.914	0.00011108
0.901	0.00014314
0.888	0.00017358
0.875	0.00020305
0.862	0.00023157
0.849	0.00025975
0.836	0.00028719
0.823	0.00031438
0.81	0.00034096
0.797	0.00036719
0.784	0.00039328
0.771	0.00041917
0.758	0.00044475
0.745	0.00047012
0.732	0.00049418
0.719	0.00051970
0.706	0.00054461
0.693	0.00056947
0.68	0.00059404
0.667	0.00061806
0.654	0.00064166
0.641	0.00066517
0.628	0.00068841
0.615	0.00071152
0.602	0.00073471
0.589	0.00075723
0.576	0.00077955
0.563	0.00080147
0.55	0.00082310
0.537	0.00084450
0.524	0.00086575
0.511	0.00088525
0.498	0.00090665
0.485	0.00092719
0.472	0.00094734
0.459	0.00096757
0.446	0.00098705
0.433	0.00100631
0.42	0.00102538
0.407	0.00104368
0.394	0.00105019
0.381	0.00107954
0.368	0.00109119
0.355	0.00110820
0.342	0.00112543
0.329	0.00114228
0.316	0.00115894
0.303	0.00117544
0.29	0.00119053
0.277	0.00120617
0.264	0.00122046
0.251	0.00123471
0.238	0.00124875
0.225	0.00126107
0.212	0.00127362
0.199	0.00128570
0.186	0.00129720
0.173	0.00130760
0.16	0.00131767
0.147	0.00132727
0.134	0.00133587
0.121	0.00134366
0.108	0.00135146
0.09500000	0.00135893
0.08200000	0.00136479
0.06900000	0.00137100
0.05600000	0.00137663
0.04300000	0.00138152
0.03000000	0.00138628
0.01700000	0.00139061
0.00400000	0.00139430
-0.00900000	0.00140082
-0.02200000	0.00140214
-0.03500000	0.00140485
-0.04800000	0.00140764
-0.06100000	0.00141046
-0.07400000	0.00141360
-0.08700000	0.00141545
-0.1	0.00141734