File: Data/IV_data/2024-05-02/A4-4_ITO+SnO2+PVSK+C6Br+Spiro+Carbon (Air Quench)  2024-04-18 20-16-15 2024-05-06 19-39-36.txt
Device Id	Operator	Recipe
A4-2_ITO+SnO2+PVSK+C6Br+Spiro+Carbon (Air Quench)  2024-04-18 20-16-15	Unknown	Jacob PVSKT _ 0.077cm^2 (nature recipe).IV

Sample Area	Irradiance	Pre sweep delay	Bias Direction	Max Reverse Bias	Max Forward Bias	Num Sweep Points	Dwell Time	Current Limit	PVIV 10A I-AMP	Average	Dark Current	Rshunt V-Lo	Rshunt V-Hi
0.077170	1.0000	0.5000	0	-0.1000	1.2000	101	10	130	0	1	0	-0.6000	-0.1000

Voc V	Isc A	Jsc mA/cm2	Imax A	Vmax V	Pmax mW	Fill Factor	Efficiency	R at Voc	R at Isc	Power W	RShunt ohms	Cell Temp start	Cell Temp end	Exposure	Time	Date
0.996923	0.00151842	19.6763	0.00084595	0.656601	0.555452	36.6939	7.1978	310.856	3601.394	0.00100088	NaN	NaN	NaN	8.297	19:39:36	05/06/2024

Vmeas	Imeas
1.2	-0.00059074
1.187	-0.00059134
1.174	-0.00057287
1.161	-0.00054507
1.148	-0.00051049
1.135	-0.00047144
1.122	-0.00042715
1.109	-0.00038376
1.096	-0.00033897
1.083	-0.00029255
1.07	-0.00024394
1.057	-0.00019653
1.044	-0.00014909
1.031	-0.00010348
1.018	-0.00005778
1.005	-0.00001500
0.992	0.00002703
0.979	0.00006774
0.966	0.00010727
0.953	0.00014571
0.94	0.00018306
0.927	0.00022058
0.914	0.00025745
0.901	0.00029307
0.888	0.00032690
0.875	0.00036739
0.862	0.00039088
0.849	0.00042683
0.836	0.00045798
0.823	0.00048826
0.81	0.00054526
0.797	0.00058706
0.784	0.00060081
0.771	0.00062379
0.758	0.00065273
0.745	0.00068357
0.732	0.00070907
0.719	0.00073444
0.706	0.00076407
0.693	0.00078414
0.68	0.00081389
0.667	0.00083572
0.654	0.00086164
0.641	0.00086773
0.628	0.00087621
0.615	0.00089245
0.602	0.00091461
0.589	0.00094229
0.576	0.00096556
0.563	0.00099042
0.55	0.00101379
0.537	0.00103154
0.524	0.00105019
0.511	0.00107628
0.498	0.00109337
0.485	0.00112078
0.472	0.00114352
0.459	0.00115627
0.446	0.00117606
0.433	0.00119175
0.42	0.00121900
0.407	0.00123804
0.394	0.00125642
0.381	0.00127136
0.368	0.00129268
0.355	0.00130763
0.342	0.00132307
0.329	0.00134226
0.316	0.00135096
0.303	0.00136845
0.29	0.00137443
0.277	0.00139044
0.264	0.00139945
0.251	0.00140833
0.238	0.00142414
0.225	0.00143881
0.212	0.00144582
0.199	0.00145715
0.186	0.00146510
0.173	0.00147489
0.16	0.00147507
0.147	0.00148620
0.134	0.00149745
0.121	0.00150629
0.108	0.00150634
0.09500000	0.00150984
0.08200000	0.00151745
0.06900000	0.00151684
0.05600000	0.00152088
0.04300000	0.00151840
0.03000000	0.00151837
0.01700000	0.00150956
0.00400000	0.00149277
-0.00900000	0.00147836
-0.02200000	0.00152104
-0.03500000	0.00147152
-0.04800000	0.00152098
-0.06100000	0.00153765
-0.07400000	0.00158028
-0.08700000	0.00160013
-0.1	0.00160020