File: Data/IV_data/2024-05-02/A4-5_ITO+SnO2+PVSK+C6Br+Spiro+Carbon (Air Quench)  2024-04-18 20-16-15 2024-05-06 19-43-53.txt
Device Id	Operator	Recipe
A4-5_ITO+SnO2+PVSK+C6Br+Spiro+Carbon (Air Quench)  2024-04-18 20-16-15	Unknown	Jacob PVSKT _ 0.077cm^2 (nature recipe).IV

Sample Area	Irradiance	Pre sweep delay	Bias Direction	Max Reverse Bias	Max Forward Bias	Num Sweep Points	Dwell Time	Current Limit	PVIV 10A I-AMP	Average	Dark Current	Rshunt V-Lo	Rshunt V-Hi
0.077170	1.0000	0.5000	0	-0.1000	1.2000	101	10	130	0	1	0	-0.6000	-0.1000

Voc V	Isc A	Jsc mA/cm2	Imax A	Vmax V	Pmax mW	Fill Factor	Efficiency	R at Voc	R at Isc	Power W	RShunt ohms	Cell Temp start	Cell Temp end	Exposure	Time	Date
0.979935	0.00124245	16.1002	0.00087462	0.564011	0.493297	40.5165	6.3923	246.893	7072.446	0.00085424	NaN	NaN	NaN	8.359	19:43:53	05/06/2024

Vmeas	Imeas
1.2	-0.00149635
1.187	-0.00143617
1.174	-0.00134422
1.161	-0.00123813
1.148	-0.00112651
1.135	-0.00101399
1.122	-0.00089524
1.109	-0.00079280
1.096	-0.00068853
1.083	-0.00058725
1.07	-0.00049029
1.057	-0.00039848
1.044	-0.00031218
1.031	-0.00023192
1.018	-0.00015774
1.005	-0.00008584
0.992	-0.00002689
0.979	0.00002872
0.966	0.00007961
0.953	0.00011880
0.94	0.00016272
0.927	0.00020178
0.914	0.00023719
0.901	0.00026973
0.888	0.00030007
0.875	0.00032861
0.862	0.00035568
0.849	0.00038187
0.836	0.00040717
0.823	0.00043166
0.81	0.00045583
0.797	0.00047982
0.784	0.00050329
0.771	0.00052679
0.758	0.00055005
0.745	0.00057095
0.732	0.00059506
0.719	0.00061836
0.706	0.00064080
0.693	0.00066325
0.68	0.00068537
0.667	0.00070729
0.654	0.00072910
0.641	0.00075117
0.628	0.00077274
0.615	0.00079386
0.602	0.00081457
0.589	0.00083523
0.576	0.00085562
0.563	0.00087614
0.55	0.00089624
0.537	0.00091599
0.524	0.00093510
0.511	0.00095416
0.498	0.00097279
0.485	0.00099148
0.472	0.00100900
0.459	0.00102674
0.446	0.00104470
0.433	0.00105019
0.42	0.00108006
0.407	0.00108686
0.394	0.00110030
0.381	0.00111396
0.368	0.00112644
0.355	0.00113828
0.342	0.00114941
0.329	0.00115962
0.316	0.00116884
0.303	0.00117712
0.29	0.00118476
0.277	0.00119112
0.264	0.00119751
0.251	0.00120249
0.238	0.00120734
0.225	0.00121155
0.212	0.00121507
0.199	0.00121833
0.186	0.00122154
0.173	0.00122382
0.16	0.00122575
0.147	0.00122799
0.134	0.00122967
0.121	0.00123182
0.108	0.00123329
0.09500000	0.00123437
0.08200000	0.00123572
0.06900000	0.00123724
0.05600000	0.00123808
0.04300000	0.00123904
0.03000000	0.00124040
0.01700000	0.00124119
0.00400000	0.00124224
-0.00900000	0.00124374
-0.02200000	0.00124398
-0.03500000	0.00124539
-0.04800000	0.00124588
-0.06100000	0.00124637
-0.07400000	0.00124688
-0.08700000	0.00124843
-0.1	0.00124856