File: Data/IV_data/2024-05-02/A5-1_ITO+SnO2+PVSK+C6Br+Spiro+Carbon (Air Quench)  2024-04-18 20-16-15 2024-05-06 19-56-12.txt
Device Id	Operator	Recipe
A5-1_ITO+SnO2+PVSK+C6Br+Spiro+Carbon (Air Quench)  2024-04-18 20-16-15	Unknown	Jacob PVSKT _ 0.077cm^2 (nature recipe).IV

Sample Area	Irradiance	Pre sweep delay	Bias Direction	Max Reverse Bias	Max Forward Bias	Num Sweep Points	Dwell Time	Current Limit	PVIV 10A I-AMP	Average	Dark Current	Rshunt V-Lo	Rshunt V-Hi
0.077170	1.0000	0.5000	0	-0.1000	1.2000	101	10	130	0	1	0	-0.6000	-0.1000

Voc V	Isc A	Jsc mA/cm2	Imax A	Vmax V	Pmax mW	Fill Factor	Efficiency	R at Voc	R at Isc	Power W	RShunt ohms	Cell Temp start	Cell Temp end	Exposure	Time	Date
1.00087	0.00113796	14.7462	0.00086207	0.558618	0.481566	42.2813	6.2403	292.981	11369.182	0.00081268	NaN	NaN	NaN	8.687	19:56:12	05/06/2024

Vmeas	Imeas
1.2	-0.00109711
1.187	-0.00101979
1.174	-0.00093885
1.161	-0.00085424
1.148	-0.00076669
1.135	-0.00067932
1.122	-0.00059378
1.109	-0.00051128
1.096	-0.00043173
1.083	-0.00035586
1.07	-0.00028410
1.057	-0.00021663
1.044	-0.00015368
1.031	-0.00009151
1.018	-0.00004036
1.005	0.00000837
0.992	0.00005127
0.979	0.00009259
0.966	0.00012500
0.953	0.00016187
0.94	0.00019464
0.927	0.00022461
0.914	0.00025260
0.901	0.00027902
0.888	0.00030402
0.875	0.00032822
0.862	0.00035148
0.849	0.00037464
0.836	0.00039730
0.823	0.00041978
0.81	0.00044197
0.797	0.00046418
0.784	0.00048627
0.771	0.00050843
0.758	0.00053086
0.745	0.00055304
0.732	0.00057519
0.719	0.00059709
0.706	0.00061901
0.693	0.00064102
0.68	0.00066312
0.667	0.00068506
0.654	0.00070687
0.641	0.00072799
0.628	0.00074989
0.615	0.00077210
0.602	0.00079353
0.589	0.00081422
0.576	0.00083478
0.563	0.00085546
0.55	0.00087494
0.537	0.00089444
0.524	0.00091368
0.511	0.00093217
0.498	0.00094967
0.485	0.00096623
0.472	0.00098206
0.459	0.00099676
0.446	0.00101079
0.433	0.00102345
0.42	0.00103566
0.407	0.00104659
0.394	0.00105507
0.381	0.00106170
0.368	0.00106989
0.355	0.00107738
0.342	0.00108429
0.329	0.00109024
0.316	0.00109545
0.303	0.00110002
0.29	0.00110470
0.277	0.00110807
0.264	0.00111126
0.251	0.00111380
0.238	0.00111648
0.225	0.00111851
0.212	0.00112058
0.199	0.00112212
0.186	0.00112422
0.173	0.00112534
0.16	0.00112677
0.147	0.00112790
0.134	0.00112902
0.121	0.00113001
0.108	0.00113088
0.09500000	0.00113238
0.08200000	0.00113332
0.06900000	0.00113443
0.05600000	0.00113501
0.04300000	0.00113510
0.03000000	0.00113626
0.01700000	0.00113648
0.00400000	0.00113747
-0.00900000	0.00113898
-0.02200000	0.00113935
-0.03500000	0.00113955
-0.04800000	0.00114079
-0.06100000	0.00114138
-0.07400000	0.00114187
-0.08700000	0.00114239
-0.1	0.00114333