File: Data/IV_data/2024-05-02/A5-2_ITO+SnO2+PVSK+C6Br+Spiro+Carbon (Air Quench)  2024-04-18 20-16-15 2024-05-06 19-56-43.txt
Device Id	Operator	Recipe
A5-2_ITO+SnO2+PVSK+C6Br+Spiro+Carbon (Air Quench)  2024-04-18 20-16-15	Unknown	Jacob PVSKT _ 0.077cm^2 (nature recipe).IV

Sample Area	Irradiance	Pre sweep delay	Bias Direction	Max Reverse Bias	Max Forward Bias	Num Sweep Points	Dwell Time	Current Limit	PVIV 10A I-AMP	Average	Dark Current	Rshunt V-Lo	Rshunt V-Hi
0.077170	1.0000	0.5000	0	-0.1000	1.2000	101	10	130	0	1	0	-0.6000	-0.1000

Voc V	Isc A	Jsc mA/cm2	Imax A	Vmax V	Pmax mW	Fill Factor	Efficiency	R at Voc	R at Isc	Power W	RShunt ohms	Cell Temp start	Cell Temp end	Exposure	Time	Date
1.01095	0.00114122	14.7884	0.00084286	0.578801	0.487851	42.2852	6.3218	287.128	10242.216	0.00082592	NaN	NaN	NaN	8.500	19:56:43	05/06/2024

Vmeas	Imeas
1.2	-0.00100027
1.187	-0.00094918
1.174	-0.00087752
1.161	-0.00079713
1.148	-0.00071362
1.135	-0.00062970
1.122	-0.00054689
1.109	-0.00046645
1.096	-0.00038906
1.083	-0.00031517
1.07	-0.00024528
1.057	-0.00017951
1.044	-0.00011813
1.031	-0.00005873
1.018	-0.00000755
1.005	0.00003902
0.992	0.00008328
0.979	0.00011897
0.966	0.00015851
0.953	0.00019402
0.94	0.00022605
0.927	0.00025612
0.914	0.00028434
0.901	0.00031082
0.888	0.00033602
0.875	0.00036029
0.862	0.00038398
0.849	0.00040713
0.836	0.00042974
0.823	0.00045202
0.81	0.00047419
0.797	0.00049580
0.784	0.00051760
0.771	0.00053948
0.758	0.00056080
0.745	0.00058216
0.732	0.00060346
0.719	0.00062461
0.706	0.00064290
0.693	0.00066582
0.68	0.00068715
0.667	0.00070764
0.654	0.00072813
0.641	0.00074882
0.628	0.00076898
0.615	0.00078910
0.602	0.00080866
0.589	0.00082787
0.576	0.00084672
0.563	0.00086526
0.55	0.00088352
0.537	0.00090150
0.524	0.00091926
0.511	0.00093577
0.498	0.00095211
0.485	0.00096776
0.472	0.00098267
0.459	0.00099673
0.446	0.00101036
0.433	0.00102246
0.42	0.00103415
0.407	0.00104544
0.394	0.00105428
0.381	0.00106015
0.368	0.00106837
0.355	0.00107653
0.342	0.00108362
0.329	0.00108979
0.316	0.00109601
0.303	0.00110077
0.29	0.00110526
0.277	0.00110945
0.264	0.00111269
0.251	0.00111575
0.238	0.00111898
0.225	0.00112099
0.212	0.00112308
0.199	0.00112499
0.186	0.00112627
0.173	0.00112748
0.16	0.00112958
0.147	0.00113125
0.134	0.00113181
0.121	0.00113333
0.108	0.00113406
0.09500000	0.00113459
0.08200000	0.00113580
0.06900000	0.00113686
0.05600000	0.00113744
0.04300000	0.00113882
0.03000000	0.00113935
0.01700000	0.00113993
0.00400000	0.00114071
-0.00900000	0.00114184
-0.02200000	0.00114240
-0.03500000	0.00114278
-0.04800000	0.00114353
-0.06100000	0.00114499
-0.07400000	0.00114463
-0.08700000	0.00114585
-0.1	0.00114665