File: Data/IV_data/2024-05-02/A5-3_ITO+SnO2+PVSK+C6Br+Spiro+Carbon (Air Quench)  2024-04-18 20-16-15 2024-05-06 19-58-38.txt
Device Id	Operator	Recipe
A5-3_ITO+SnO2+PVSK+C6Br+Spiro+Carbon (Air Quench)  2024-04-18 20-16-15	Unknown	Jacob PVSKT _ 0.077cm^2 (nature recipe).IV

Sample Area	Irradiance	Pre sweep delay	Bias Direction	Max Reverse Bias	Max Forward Bias	Num Sweep Points	Dwell Time	Current Limit	PVIV 10A I-AMP	Average	Dark Current	Rshunt V-Lo	Rshunt V-Hi
0.077170	1.0000	0.5000	0	-0.1000	1.2000	101	10	130	0	1	0	-0.6000	-0.1000

Voc V	Isc A	Jsc mA/cm2	Imax A	Vmax V	Pmax mW	Fill Factor	Efficiency	R at Voc	R at Isc	Power W	RShunt ohms	Cell Temp start	Cell Temp end	Exposure	Time	Date
0.934408	0.00124434	16.1246	0.00079491	0.540476	0.429628	36.9503	5.5673	456.42	2397.064	0.00074551	NaN	NaN	NaN	8.281	19:58:38	05/06/2024

Vmeas	Imeas
1.2	-0.00077630
1.187	-0.00072496
1.174	-0.00067366
1.161	-0.00062326
1.148	-0.00057393
1.135	-0.00052539
1.122	-0.00047807
1.109	-0.00043475
1.096	-0.00039285
1.083	-0.00035346
1.07	-0.00031558
1.057	-0.00027998
1.044	-0.00024611
1.031	-0.00021450
1.018	-0.00018372
1.005	-0.00015447
0.992	-0.00012460
0.979	-0.00009861
0.966	-0.00006901
0.953	-0.00004088
0.94	-0.00001154
0.927	0.00001730
0.914	0.00004552
0.901	0.00007417
0.888	0.00010496
0.875	0.00012328
0.862	0.00015707
0.849	0.00018945
0.836	0.00022093
0.823	0.00025171
0.81	0.00028208
0.797	0.00031219
0.784	0.00034130
0.771	0.00037037
0.758	0.00039871
0.745	0.00042669
0.732	0.00045414
0.719	0.00048139
0.706	0.00050792
0.693	0.00053350
0.68	0.00055907
0.667	0.00058386
0.654	0.00060784
0.641	0.00063157
0.628	0.00065476
0.615	0.00067653
0.602	0.00069866
0.589	0.00071973
0.576	0.00074097
0.563	0.00076120
0.55	0.00078127
0.537	0.00080010
0.524	0.00081812
0.511	0.00083692
0.498	0.00085473
0.485	0.00087237
0.472	0.00088935
0.459	0.00090558
0.446	0.00092175
0.433	0.00093713
0.42	0.00095218
0.407	0.00096720
0.394	0.00098131
0.381	0.00099478
0.368	0.00100858
0.355	0.00102113
0.342	0.00103372
0.329	0.00104663
0.316	0.00105048
0.303	0.00106082
0.29	0.00107281
0.277	0.00108448
0.264	0.00109594
0.251	0.00110646
0.238	0.00111641
0.225	0.00112630
0.212	0.00113593
0.199	0.00114510
0.186	0.00115399
0.173	0.00116206
0.16	0.00117022
0.147	0.00117789
0.134	0.00118537
0.121	0.00119206
0.108	0.00119871
0.09500000	0.00120522
0.08200000	0.00121125
0.06900000	0.00121747
0.05600000	0.00122328
0.04300000	0.00122903
0.03000000	0.00123418
0.01700000	0.00123946
0.00400000	0.00124497
-0.00900000	0.00125154
-0.02200000	0.00125501
-0.03500000	0.00125981
-0.04800000	0.00126382
-0.06100000	0.00126876
-0.07400000	0.00127332
-0.08700000	0.00127787
-0.1	0.00128169