File: Data/IV_data/2024-05-02/A5-4_ITO+SnO2+PVSK+C6Br+Spiro+Carbon (Air Quench)  2024-04-18 20-16-15 2024-05-06 19-59-26.txt
Device Id	Operator	Recipe
A5-4_ITO+SnO2+PVSK+C6Br+Spiro+Carbon (Air Quench)  2024-04-18 20-16-15	Unknown	Jacob PVSKT _ 0.077cm^2 (nature recipe).IV

Sample Area	Irradiance	Pre sweep delay	Bias Direction	Max Reverse Bias	Max Forward Bias	Num Sweep Points	Dwell Time	Current Limit	PVIV 10A I-AMP	Average	Dark Current	Rshunt V-Lo	Rshunt V-Hi
0.077170	1.0000	0.5000	0	-0.1000	1.2000	101	10	130	0	1	0	-0.6000	-0.1000

Voc V	Isc A	Jsc mA/cm2	Imax A	Vmax V	Pmax mW	Fill Factor	Efficiency	R at Voc	R at Isc	Power W	RShunt ohms	Cell Temp start	Cell Temp end	Exposure	Time	Date
1.03379	0.00127369	16.5049	0.00091757	0.554635	0.508918	38.6503	6.5948	369.309	4680.935	0.00088102	NaN	NaN	NaN	8.500	19:59:26	05/06/2024

Vmeas	Imeas
1.2	-0.00065175
1.187	-0.00059478
1.174	-0.00053259
1.161	-0.00046906
1.148	-0.00040612
1.135	-0.00034540
1.122	-0.00028693
1.109	-0.00023177
1.096	-0.00018009
1.083	-0.00013205
1.07	-0.00008531
1.057	-0.00004535
1.044	-0.00000686
1.031	0.00002799
1.018	0.00006182
1.005	0.00009372
0.992	0.00011807
0.979	0.00014826
0.966	0.00017474
0.953	0.00020253
0.94	0.00022662
0.927	0.00025288
0.914	0.00027524
0.901	0.00029835
0.888	0.00032213
0.875	0.00034445
0.862	0.00036745
0.849	0.00039074
0.836	0.00041374
0.823	0.00043813
0.81	0.00046099
0.797	0.00048357
0.784	0.00050791
0.771	0.00053170
0.758	0.00055511
0.745	0.00057740
0.732	0.00060111
0.719	0.00062471
0.706	0.00064838
0.693	0.00067345
0.68	0.00069745
0.667	0.00072067
0.654	0.00074423
0.641	0.00076744
0.628	0.00079161
0.615	0.00081438
0.602	0.00083725
0.589	0.00085884
0.576	0.00088250
0.563	0.00090458
0.55	0.00092539
0.537	0.00094665
0.524	0.00096554
0.511	0.00098612
0.498	0.00100485
0.485	0.00102250
0.472	0.00104079
0.459	0.00105019
0.446	0.00107270
0.433	0.00108160
0.42	0.00109457
0.407	0.00110874
0.394	0.00112181
0.381	0.00113487
0.368	0.00114655
0.355	0.00115604
0.342	0.00116627
0.329	0.00117539
0.316	0.00118373
0.303	0.00119170
0.29	0.00119877
0.277	0.00120414
0.264	0.00121043
0.251	0.00121546
0.238	0.00122029
0.225	0.00122607
0.212	0.00123072
0.199	0.00123480
0.186	0.00123841
0.173	0.00124162
0.16	0.00124393
0.147	0.00124830
0.134	0.00125027
0.121	0.00125373
0.108	0.00125428
0.09500000	0.00125663
0.08200000	0.00126040
0.06900000	0.00126252
0.05600000	0.00126552
0.04300000	0.00126846
0.03000000	0.00127061
0.01700000	0.00127294
0.00400000	0.00127444
-0.00900000	0.00127627
-0.02200000	0.00127826
-0.03500000	0.00127958
-0.04800000	0.00128019
-0.06100000	0.00128198
-0.07400000	0.00128411
-0.08700000	0.00128555
-0.1	0.00128641