File: Data/IV_data/2024-05-02/A5-5_ITO+SnO2+PVSK+C6Br+Spiro+Carbon (Air Quench)  2024-04-18 20-16-15 2024-05-06 20-00-18.txt
Device Id	Operator	Recipe
A5-5_ITO+SnO2+PVSK+C6Br+Spiro+Carbon (Air Quench)  2024-04-18 20-16-15	Unknown	Jacob PVSKT _ 0.077cm^2 (nature recipe).IV

Sample Area	Irradiance	Pre sweep delay	Bias Direction	Max Reverse Bias	Max Forward Bias	Num Sweep Points	Dwell Time	Current Limit	PVIV 10A I-AMP	Average	Dark Current	Rshunt V-Lo	Rshunt V-Hi
0.077170	1.0000	0.5000	0	-0.1000	1.2000	101	10	130	0	1	0	-0.6000	-0.1000

Voc V	Isc A	Jsc mA/cm2	Imax A	Vmax V	Pmax mW	Fill Factor	Efficiency	R at Voc	R at Isc	Power W	RShunt ohms	Cell Temp start	Cell Temp end	Exposure	Time	Date
1.01296	0.00091004	11.7927	0.00068006	0.588564	0.400261	43.4201	5.1867	396.009	11032.232	0.00066310	NaN	NaN	NaN	8.359	20:00:18	05/06/2024

Vmeas	Imeas
1.2	-0.00074637
1.187	-0.00068767
1.174	-0.00062386
1.161	-0.00055847
1.148	-0.00049353
1.135	-0.00043047
1.122	-0.00036974
1.109	-0.00031204
1.096	-0.00025765
1.083	-0.00020667
1.07	-0.00015912
1.057	-0.00011470
1.044	-0.00007159
1.031	-0.00003486
1.018	0.00000023
1.005	0.00003167
0.992	0.00006331
0.979	0.00009296
0.966	0.00011443
0.953	0.00014326
0.94	0.00016953
0.927	0.00019418
0.914	0.00021761
0.901	0.00023998
0.888	0.00026174
0.875	0.00028296
0.862	0.00030362
0.849	0.00032401
0.836	0.00034402
0.823	0.00036375
0.81	0.00038301
0.797	0.00040229
0.784	0.00042137
0.771	0.00044014
0.758	0.00045892
0.745	0.00047748
0.732	0.00049581
0.719	0.00051363
0.706	0.00052965
0.693	0.00054853
0.68	0.00056616
0.667	0.00058340
0.654	0.00060032
0.641	0.00061692
0.628	0.00063192
0.615	0.00064842
0.602	0.00066429
0.589	0.00067970
0.576	0.00069436
0.563	0.00070877
0.55	0.00072296
0.537	0.00073645
0.524	0.00074864
0.511	0.00076127
0.498	0.00077333
0.485	0.00078438
0.472	0.00079490
0.459	0.00080501
0.446	0.00081397
0.433	0.00082244
0.42	0.00083052
0.407	0.00083775
0.394	0.00084417
0.381	0.00085035
0.368	0.00085595
0.355	0.00086058
0.342	0.00086497
0.329	0.00086893
0.316	0.00087287
0.303	0.00087592
0.29	0.00087856
0.277	0.00088165
0.264	0.00088438
0.251	0.00088688
0.238	0.00088892
0.225	0.00089055
0.212	0.00089257
0.199	0.00089366
0.186	0.00089531
0.173	0.00089649
0.16	0.00089833
0.147	0.00089912
0.134	0.00089996
0.121	0.00090121
0.108	0.00090239
0.09500000	0.00090329
0.08200000	0.00090459
0.06900000	0.00090570
0.05600000	0.00090658
0.04300000	0.00090733
0.03000000	0.00090823
0.01700000	0.00090909
0.00400000	0.00091018
-0.00900000	0.00091094
-0.02200000	0.00091141
-0.03500000	0.00091221
-0.04800000	0.00091270
-0.06100000	0.00091371
-0.07400000	0.00091429
-0.08700000	0.00091490
-0.1	0.00091592