File: Data/IV_data/2024-05-02/A6-2_ITO+SnO2+PVSK+C6Br+Spiro+Carbon (Air Quench)  2024-04-18 20-16-15 2024-05-06 20-02-29.txt
Device Id	Operator	Recipe
A6-2_ITO+SnO2+PVSK+C6Br+Spiro+Carbon (Air Quench)  2024-04-18 20-16-15	Unknown	Jacob PVSKT _ 0.077cm^2 (nature recipe).IV

Sample Area	Irradiance	Pre sweep delay	Bias Direction	Max Reverse Bias	Max Forward Bias	Num Sweep Points	Dwell Time	Current Limit	PVIV 10A I-AMP	Average	Dark Current	Rshunt V-Lo	Rshunt V-Hi
0.077170	1.0000	0.5000	0	-0.1000	1.2000	101	10	130	0	1	0	-0.6000	-0.1000

Voc V	Isc A	Jsc mA/cm2	Imax A	Vmax V	Pmax mW	Fill Factor	Efficiency	R at Voc	R at Isc	Power W	RShunt ohms	Cell Temp start	Cell Temp end	Exposure	Time	Date
1.01182	0.00146923	19.0389	0.00090417	0.517462	0.467875	31.4728	6.0629	2366.51	2774.016	0.00080927	NaN	NaN	NaN	8.281	20:02:29	05/06/2024

Vmeas	Imeas
1.2	-0.00007731
1.187	-0.00007255
1.174	-0.00006714
1.161	-0.00006192
1.148	-0.00005652
1.135	-0.00005127
1.122	-0.00004618
1.109	-0.00004083
1.096	-0.00003535
1.083	-0.00003004
1.07	-0.00002460
1.057	-0.00001915
1.044	-0.00001376
1.031	-0.00000823
1.018	-0.00000279
1.005	0.00000270
0.992	0.00000817
0.979	0.00001384
0.966	0.00001935
0.953	0.00002462
0.94	0.00003009
0.927	0.00003624
0.914	0.00004175
0.901	0.00004741
0.888	0.00005313
0.875	0.00005923
0.862	0.00006520
0.849	0.00007119
0.836	0.00007665
0.823	0.00008218
0.81	0.00008874
0.797	0.00009550
0.784	0.00010181
0.771	0.00023093
0.758	0.00034560
0.745	0.00032454
0.732	0.00034958
0.719	0.00031063
0.706	0.00026868
0.693	0.00028300
0.68	0.00029641
0.667	0.00041498
0.654	0.00047055
0.641	0.00055295
0.628	0.00059543
0.615	0.00063017
0.602	0.00065436
0.589	0.00075880
0.576	0.00078079
0.563	0.00081080
0.55	0.00083731
0.537	0.00086351
0.524	0.00088789
0.511	0.00091686
0.498	0.00094201
0.485	0.00096250
0.472	0.00097562
0.459	0.00100738
0.446	0.00102834
0.433	0.00107341
0.42	0.00109359
0.407	0.00110662
0.394	0.00113780
0.381	0.00115878
0.368	0.00118020
0.355	0.00119218
0.342	0.00121357
0.329	0.00123317
0.316	0.00125345
0.303	0.00126524
0.29	0.00128385
0.277	0.00129948
0.264	0.00130798
0.251	0.00132948
0.238	0.00133705
0.225	0.00135023
0.212	0.00137192
0.199	0.00138025
0.186	0.00138671
0.173	0.00139502
0.16	0.00140641
0.147	0.00141701
0.134	0.00142241
0.121	0.00142872
0.108	0.00143382
0.09500000	0.00143975
0.08200000	0.00144689
0.06900000	0.00144961
0.05600000	0.00145747
0.04300000	0.00146147
0.03000000	0.00146420
0.01700000	0.00146850
0.00400000	0.00147139
-0.00900000	0.00147408
-0.02200000	0.00147777
-0.03500000	0.00148150
-0.04800000	0.00148435
-0.06100000	0.00148846
-0.07400000	0.00149143
-0.08700000	0.00149358
-0.1	0.00149534