File: Data/IV_data/2024-05-02/A6-3_ITO+SnO2+PVSK+C6Br+Spiro+Carbon (Air Quench)  2024-04-18 20-16-15 2024-05-06 20-03-13.txt
Device Id	Operator	Recipe
A6-3_ITO+SnO2+PVSK+C6Br+Spiro+Carbon (Air Quench)  2024-04-18 20-16-15	Unknown	Jacob PVSKT _ 0.077cm^2 (nature recipe).IV

Sample Area	Irradiance	Pre sweep delay	Bias Direction	Max Reverse Bias	Max Forward Bias	Num Sweep Points	Dwell Time	Current Limit	PVIV 10A I-AMP	Average	Dark Current	Rshunt V-Lo	Rshunt V-Hi
0.077170	1.0000	0.5000	0	-0.1000	1.2000	101	10	130	0	1	0	-0.6000	-0.1000

Voc V	Isc A	Jsc mA/cm2	Imax A	Vmax V	Pmax mW	Fill Factor	Efficiency	R at Voc	R at Isc	Power W	RShunt ohms	Cell Temp start	Cell Temp end	Exposure	Time	Date
0.991634	0.00159169	20.6258	0.00096680	0.483643	0.467588	29.6246	6.0592	5259.85	2075.902	0.00079787	NaN	NaN	NaN	8.297	20:03:13	05/06/2024

Vmeas	Imeas
1.2	-0.00003886
1.187	-0.00003614
1.174	-0.00003397
1.161	-0.00003151
1.148	-0.00002907
1.135	-0.00002666
1.122	-0.00002426
1.109	-0.00002195
1.096	-0.00001948
1.083	-0.00001720
1.07	-0.00001472
1.057	-0.00001236
1.044	-0.00001003
1.031	-0.00000753
1.018	-0.00000508
1.005	-0.00000275
0.992	-0.00000036
0.979	0.00000211
0.966	0.00000478
0.953	0.00000730
0.94	0.00001008
0.927	0.00001236
0.914	0.00001482
0.901	0.00001733
0.888	0.00002430
0.875	0.00002838
0.862	0.00003230
0.849	0.00003653
0.836	0.00004077
0.823	0.00004539
0.81	0.00005085
0.797	0.00006157
0.784	0.00006416
0.771	0.00007262
0.758	0.00009494
0.745	0.00011440
0.732	0.00016102
0.719	0.00017721
0.706	0.00025692
0.693	0.00028117
0.68	0.00029848
0.667	0.00029346
0.654	0.00032794
0.641	0.00036035
0.628	0.00039194
0.615	0.00045539
0.602	0.00050275
0.589	0.00056857
0.576	0.00063682
0.563	0.00069525
0.55	0.00078261
0.537	0.00083123
0.524	0.00085389
0.511	0.00089379
0.498	0.00093885
0.485	0.00096321
0.472	0.00099351
0.459	0.00101126
0.446	0.00102537
0.433	0.00104635
0.42	0.00108403
0.407	0.00110114
0.394	0.00113360
0.381	0.00115399
0.368	0.00116921
0.355	0.00121307
0.342	0.00123950
0.329	0.00125201
0.316	0.00128619
0.303	0.00130799
0.29	0.00132391
0.277	0.00135481
0.264	0.00138393
0.251	0.00139089
0.238	0.00139338
0.225	0.00142219
0.212	0.00143927
0.199	0.00145822
0.186	0.00146158
0.173	0.00148489
0.16	0.00149346
0.147	0.00149664
0.134	0.00151256
0.121	0.00152717
0.108	0.00153033
0.09500000	0.00154459
0.08200000	0.00155324
0.06900000	0.00156262
0.05600000	0.00156988
0.04300000	0.00158066
0.03000000	0.00158596
0.01700000	0.00159114
0.00400000	0.00159724
-0.00900000	0.00160480
-0.02200000	0.00160832
-0.03500000	0.00161133
-0.04800000	0.00161523
-0.06100000	0.00161852
-0.07400000	0.00162154
-0.08700000	0.00162452
-0.1	0.00162690