File: Data/IV_data/2024-05-02/A6-4_ITO+SnO2+PVSK+C6Br+Spiro+Carbon (Air Quench)  2024-04-18 20-16-15 2024-05-06 20-04-00.txt
Device Id	Operator	Recipe
A6-4_ITO+SnO2+PVSK+C6Br+Spiro+Carbon (Air Quench)  2024-04-18 20-16-15	Unknown	Jacob PVSKT _ 0.077cm^2 (nature recipe).IV

Sample Area	Irradiance	Pre sweep delay	Bias Direction	Max Reverse Bias	Max Forward Bias	Num Sweep Points	Dwell Time	Current Limit	PVIV 10A I-AMP	Average	Dark Current	Rshunt V-Lo	Rshunt V-Hi
0.077170	1.0000	0.5000	0	-0.1000	1.2000	101	10	130	0	1	0	-0.6000	-0.1000

Voc V	Isc A	Jsc mA/cm2	Imax A	Vmax V	Pmax mW	Fill Factor	Efficiency	R at Voc	R at Isc	Power W	RShunt ohms	Cell Temp start	Cell Temp end	Exposure	Time	Date
1.02578	0.00126510	16.3937	0.00090306	0.466244	0.421044	32.4450	5.4561	2853.52	4391.535	0.00073804	NaN	NaN	NaN	8.297	20:04:00	05/06/2024

Vmeas	Imeas
1.2	-0.00006960
1.187	-0.00006475
1.174	-0.00005965
1.161	-0.00005480
1.148	-0.00004852
1.135	-0.00004203
1.122	-0.00003519
1.109	-0.00002968
1.096	-0.00002418
1.083	-0.00001910
1.07	-0.00001335
1.057	-0.00000760
1.044	-0.00000271
1.031	0.00000187
1.018	0.00000585
1.005	0.00000702
0.992	0.00001071
0.979	0.00001426
0.966	0.00001791
0.953	0.00002158
0.94	0.00002909
0.927	0.00003294
0.914	0.00004968
0.901	0.00005635
0.888	0.00006712
0.875	0.00007588
0.862	0.00008197
0.849	0.00011074
0.836	0.00012620
0.823	0.00016886
0.81	0.00019469
0.797	0.00021750
0.784	0.00024984
0.771	0.00026861
0.758	0.00029451
0.745	0.00032104
0.732	0.00037361
0.719	0.00040653
0.706	0.00043951
0.693	0.00045683
0.68	0.00046832
0.667	0.00048239
0.654	0.00049539
0.641	0.00053333
0.628	0.00055072
0.615	0.00056978
0.602	0.00060596
0.589	0.00064139
0.576	0.00068197
0.563	0.00071180
0.55	0.00073882
0.537	0.00074437
0.524	0.00076925
0.511	0.00080158
0.498	0.00084589
0.485	0.00088244
0.472	0.00089343
0.459	0.00090807
0.446	0.00093273
0.433	0.00094711
0.42	0.00098993
0.407	0.00100220
0.394	0.00101513
0.381	0.00103333
0.368	0.00105013
0.355	0.00105224
0.342	0.00107876
0.329	0.00109431
0.316	0.00110647
0.303	0.00112284
0.29	0.00113096
0.277	0.00114882
0.264	0.00117656
0.251	0.00118549
0.238	0.00119132
0.225	0.00120026
0.212	0.00120662
0.199	0.00120932
0.186	0.00122001
0.173	0.00122578
0.16	0.00123086
0.147	0.00123523
0.134	0.00123927
0.121	0.00124293
0.108	0.00124640
0.09500000	0.00124931
0.08200000	0.00125282
0.06900000	0.00125549
0.05600000	0.00125986
0.04300000	0.00126189
0.03000000	0.00126372
0.01700000	0.00126589
0.00400000	0.00126673
-0.00900000	0.00126900
-0.02200000	0.00127019
-0.03500000	0.00127239
-0.04800000	0.00127362
-0.06100000	0.00127439
-0.07400000	0.00127553
-0.08700000	0.00127709
-0.1	0.00127795